##TITLE=No Description
##DATA TYPE=INFRARED SPECTRUM
##XUNITS=1/CM
##YUNITS=%T
400.628357  	159.175471 
402.059173  	121.147644 
403.489988  	452.875260 
404.920804  	141.206474 
406.351619  	129.631957 
407.782435  	132.351491 
409.213250  	195.444749 
410.644066  	91.546481 
412.074881  	152.854245 
413.505697  	220.533398 
414.936513  	277.762946 
416.367328  	367.578412 
417.798144  	84.976227 
419.228959  	113.539680 
420.659775  	93.795304 
422.090590  	316.387690 
423.521406  	293.000314 
424.952221  	172.789908 
426.383037  	193.958096 
427.813853  	112.024664 
429.244668  	43.176993 
430.675484  	53.491538 
432.106299  	30.446703 
433.537115  	265.628095 
434.967930  	56.696257 
436.398746  	19.607410 
437.829562  	66.630276 
439.260377  	161.039576 
440.691193  	183.682332 
442.122008  	487.056589 
443.552824  	81.085292 
444.983639  	704.283069 
446.414455  	11.230926 
447.845270  	126.551662 
449.276086  	85.528573 
450.706902  	117.082143 
452.137717  	114.858266 
453.568533  	74.416580 
454.999348  	18.942767 
456.430164  	63.042048 
457.860979  	282.840370 
459.291795  	174.818710 
460.722611  	189.897398 
462.153426  	98.070273 
463.584242  	59.585299 
465.015057  	10.630437 
466.445873  	65.923559 
467.876688  	214.183399 
469.307504  	251.014240 
470.738319  	223.626688 
472.169135  	180.395671 
473.599951  	273.690024 
475.030766  	111.065251 
476.461582  	142.913437 
477.892397  	109.818950 
479.323213  	33.052480 
480.754028  	99.960179 
482.184844  	35.325773 
483.615659  	93.516306 
485.046475  	73.967858 
486.477291  	31.707005 
487.908106  	144.299713 
489.338922  	85.982443 
490.769737  	25.431191 
492.200553  	71.410093 
493.631368  	55.701526 
495.062184  	63.676683 
496.493000  	60.497722 
497.923815  	76.777201 
499.354631  	63.228759 
500.785446  	37.744076 
502.216262  	44.672413 
503.647077  	64.670027 
505.077893  	431.754326 
506.508708  	55.717779 
507.939524  	44.860915 
509.370340  	22.331309 
510.801155  	79.239952 
512.231971  	66.606469 
513.662786  	46.997679 
515.093602  	17.891903 
516.524417  	90.754061 
517.955233  	107.583283 
519.386048  	99.558841 
520.816864  	62.105553 
522.247680  	61.056287 
523.678495  	82.669954 
525.109311  	152.135596 
526.540126  	6508.760220 
527.970942  	1483.304927 
529.401757  	182.684078 
530.832573  	312.772512 
532.263389  	157.252335 
533.694204  	402.115786 
535.125020  	124.636270 
536.555835  	146.827272 
537.986651  	210.907310 
539.417466  	456.343585 
540.848282  	62.717281 
542.279097  	69.142830 
543.709913  	124.010008 
545.140729  	76.064805 
546.571544  	288.308505 
548.002360  	161.965484 
549.433175  	151.227710 
550.863991  	132.639112 
552.294806  	130.629730 
553.725622  	195.694835 
555.156438  	167.623118 
556.587253  	3.899598 
558.018069  	29.545915 
559.448884  	99.949969 
560.879700  	147.720137 
562.310515  	288.864810 
563.741331  	74.370152 
565.172146  	573.975425 
566.602962  	153.208014 
568.033778  	118.332675 
569.464593  	336.063422 
570.895409  	148.700133 
572.326224  	136.129855 
573.757040  	198.736899 
575.187855  	151.586749 
576.618671  	140.332305 
578.049486  	123.993572 
579.480302  	93.199915 
580.911118  	82.508613 
582.341933  	31.346515 
583.772749  	51.484900 
585.203564  	35.732155 
586.634380  	104.468715 
588.065195  	266.373528 
589.496011  	184.569798 
590.926827  	92.076063 
592.357642  	581.678189 
593.788458  	158.604625 
595.219273  	11.519590 
596.650089  	65.005920 
598.080904  	82.743455 
599.511720  	185.056799 
600.942535  	320.896082 
602.373351  	196.908775 
603.804167  	190.898483 
605.234982  	230.182454 
606.665798  	93.637562 
608.096613  	68.820105 
609.527429  	148.141767 
610.958244  	37.703356 
612.389060  	85.365514 
613.819875  	47.076675 
615.250691  	203.503080 
616.681507  	76.450441 
618.112322  	40.264103 
619.543138  	50.240082 
620.973953  	72.119653 
622.404769  	287.062095 
623.835584  	380.405682 
625.266400  	59.803345 
626.697216  	17.700667 
628.128031  	262.257325 
629.558847  	98.474305 
630.989662  	62.967094 
632.420478  	100.849885 
633.851293  	109.627517 
635.282109  	722.924504 
636.712924  	34.824726 
638.143740  	193.275651 
639.574556  	76.653883 
641.005371  	51.019177 
642.436187  	191.476190 
643.867002  	108.716393 
645.297818  	219.045550 
646.728633  	128.880468 
648.159449  	103.585080 
649.590265  	92.441290 
651.021080  	175.160152 
652.451896  	70.390059 
653.882711  	25.854193 
655.313527  	97.822533 
656.744342  	103.682776 
658.175158  	150.725605 
659.605973  	134.930756 
661.036789  	60.686500 
662.467605  	108.267841 
663.898420  	16.146599 
665.329236  	68.095317 
666.760051  	63.694634 
668.190867  	68.854385 
669.621682  	33.883264 
671.052498  	65.711806 
672.483313  	103.737727 
673.914129  	160.247038 
675.344945  	151.015744 
676.775760  	93.262855 
678.206576  	169.824854 
679.637391  	68.436621 
681.068207  	89.696276 
682.499022  	55.239063 
683.929838  	69.911687 
685.360654  	35.815941 
686.791469  	28.980170 
688.222285  	98.703340 
689.653100  	105.883919 
691.083916  	29.078050 
692.514731  	106.893068 
693.945547  	93.517002 
695.376362  	26.202643 
696.807178  	130.751082 
698.237994  	35.068765 
699.668809  	43.255696 
701.099625  	110.106354 
702.530440  	109.377951 
703.961256  	166.512742 
705.392071  	96.756353 
706.822887  	90.469516 
708.253702  	27.932703 
709.684518  	51.055108 
711.115334  	26.598479 
712.546149  	77.797916 
713.976965  	112.252944 
715.407780  	151.484137 
716.838596  	122.765566 
718.269411  	75.966007 
719.700227  	69.096401 
721.131043  	48.550733 
722.561858  	26.295360 
723.992674  	60.698541 
725.423489  	107.845259 
726.854305  	38.230989 
728.285120  	79.479146 
729.715936  	74.809329 
731.146751  	114.292139 
732.577567  	52.528290 
734.008383  	54.831668 
735.439198  	142.996879 
736.870014  	127.488519 
738.300829  	99.990169 
739.731645  	75.546153 
741.162460  	68.662013 
742.593276  	58.428755 
744.024092  	108.455768 
745.454907  	75.147455 
746.885723  	40.380478 
748.316538  	186.459963 
749.747354  	74.965627 
751.178169  	162.082489 
752.608985  	193.232240 
754.039800  	220.447776 
755.470616  	83.962292 
756.901432  	105.645912 
758.332247  	23.373673 
759.763063  	50.331869 
761.193878  	31.438345 
762.624694  	83.775418 
764.055509  	108.240664 
765.486325  	41.962470 
766.917140  	17.260417 
768.347956  	90.226493 
769.778772  	117.661427 
771.209587  	55.931954 
772.640403  	51.265518 
774.071218  	87.551138 
775.502034  	114.502821 
776.932849  	129.476384 
778.363665  	38.922793 
779.794481  	81.153665 
781.225296  	44.642007 
782.656112  	48.500415 
784.086927  	18.414239 
785.517743  	71.340714 
786.948558  	23.871112 
788.379374  	64.871901 
789.810189  	29.270971 
791.241005  	44.430686 
792.671821  	38.300099 
794.102636  	41.892994 
795.533452  	47.102281 
796.964267  	92.366907 
798.395083  	55.854071 
799.825898  	79.189568 
801.256714  	69.948407 
802.687529  	89.235421 
804.118345  	117.652464 
805.549161  	107.508314 
806.979976  	84.394884 
808.410792  	60.065900 
809.841607  	74.583999 
811.272423  	67.965085 
812.703238  	40.815843 
814.134054  	83.689978 
815.564870  	38.937278 
816.995685  	49.234055 
818.426501  	52.024501 
819.857316  	79.269113 
821.288132  	41.371783 
822.718947  	59.986995 
824.149763  	47.854925 
825.580578  	96.932656 
827.011394  	23.350601 
828.442210  	67.975137 
829.873025  	111.470650 
831.303841  	54.405366 
832.734656  	67.964472 
834.165472  	74.749553 
835.596287  	78.555313 
837.027103  	92.994947 
838.457918  	97.617128 
839.888734  	92.696857 
841.319550  	92.268550 
842.750365  	89.695641 
844.181181  	88.709991 
845.611996  	89.993615 
847.042812  	86.473767 
848.473627  	86.323289 
849.904443  	89.115100 
851.335259  	89.543046 
852.766074  	90.998843 
854.196890  	91.219406 
855.627705  	90.706458 
857.058521  	92.371043 
858.489336  	92.403846 
859.920152  	92.416841 
861.350967  	92.882164 
862.781783  	92.087439 
864.212599  	93.249078 
865.643414  	93.777143 
867.074230  	92.091553 
868.505045  	91.975221 
869.935861  	92.132331 
871.366676  	92.226469 
872.797492  	92.684636 
874.228308  	91.892614 
875.659123  	91.998084 
877.089939  	92.755357 
878.520754  	92.547088 
879.951570  	92.879121 
881.382385  	92.882251 
882.813201  	92.552641 
884.244016  	92.641475 
885.674832  	92.110998 
887.105648  	91.962367 
888.536463  	92.071604 
889.967279  	91.801955 
891.398094  	92.086866 
892.828910  	92.022415 
894.259725  	91.711533 
895.690541  	92.053659 
897.121356  	91.891384 
898.552172  	91.757535 
899.982988  	92.125937 
901.413803  	91.902658 
902.844619  	91.747999 
904.275434  	91.876666 
905.706250  	91.837093 
907.137065  	91.992623 
908.567881  	92.024401 
909.998697  	92.000556 
911.429512  	92.158012 
912.860328  	92.178084 
914.291143  	92.353383 
915.721959  	92.446973 
917.152774  	92.257673 
918.583590  	92.386380 
920.014405  	92.634808 
921.445221  	92.923596 
922.876037  	93.210648 
924.306852  	93.119519 
925.737668  	93.202867 
927.168483  	93.326751 
928.599299  	93.147746 
930.030114  	93.124239 
931.460930  	92.869076 
932.891745  	92.654921 
934.322561  	92.791768 
935.753377  	92.525807 
937.184192  	92.327343 
938.615008  	92.367394 
940.045823  	92.111044 
941.476639  	92.127452 
942.907454  	92.277184 
944.338270  	92.223250 
945.769086  	92.396361 
947.199901  	92.499667 
948.630717  	92.632468 
950.061532  	92.820838 
951.492348  	92.625754 
952.923163  	92.803392 
954.353979  	92.862504 
955.784794  	92.182920 
957.215610  	91.877075 
958.646426  	91.695523 
960.077241  	91.269692 
961.508057  	90.905327 
962.938872  	90.416946 
964.369688  	90.243973 
965.800503  	90.232573 
967.231319  	89.832765 
968.662135  	89.646825 
970.092950  	89.609063 
971.523766  	89.457624 
972.954581  	89.524982 
974.385397  	89.486594 
975.816212  	89.642986 
977.247028  	90.111323 
978.677843  	90.334419 
980.108659  	91.436932 
981.539475  	92.926020 
982.970290  	93.778834 
984.401106  	96.110514 
985.831921  	98.694577 
987.262737  	102.238031 
988.693552  	108.673934 
990.124368  	111.523530 
991.555183  	121.676644 
992.985999  	129.963597 
994.416815  	129.198572 
995.847630  	145.260304 
997.278446  	142.866541 
998.709261  	142.631071 
1000.140077  	151.515007 
1001.570892  	135.388538 
1003.001708  	139.912902 
1004.432524  	143.524624 
1005.863339  	134.143955 
1007.294155  	149.869229 
1008.724970  	143.957806 
1010.155786  	135.752793 
1011.586601  	151.208540 
1013.017417  	143.412154 
1014.448232  	150.157591 
1015.879048  	155.578244 
1017.309864  	138.320789 
1018.740679  	150.986013 
1020.171495  	145.682045 
1021.602310  	138.176348 
1023.033126  	152.106763 
1024.463941  	137.257668 
1025.894757  	133.966398 
1027.325572  	144.539540 
1028.756388  	136.869338 
1030.187204  	149.177861 
1031.618019  	149.081161 
1033.048835  	138.721550 
1034.479650  	154.053102 
1035.910466  	143.683225 
1037.341281  	140.894013 
1038.772097  	152.002022 
1040.202913  	137.392917 
1041.633728  	142.546200 
1043.064544  	142.789293 
1044.495359  	130.708502 
1045.926175  	145.826463 
1047.356990  	143.032900 
1048.787806  	137.488740 
1050.218621  	147.389425 
1051.649437  	132.431802 
1053.080253  	139.232832 
1054.511068  	151.202957 
1055.941884  	138.188647 
1057.372699  	150.444709 
1058.803515  	142.962163 
1060.234330  	134.233290 
1061.665146  	149.582721 
1063.095962  	136.907006 
1064.526777  	138.141208 
1065.957593  	145.228578 
1067.388408  	132.129232 
1068.819224  	142.862967 
1070.250039  	141.325064 
1071.680855  	132.530031 
1073.111670  	147.810479 
1074.542486  	138.955846 
1075.973302  	136.690614 
1077.404117  	141.072097 
1078.834933  	125.131399 
1080.265748  	120.005815 
1081.696564  	113.447507 
1083.127379  	107.708122 
1084.558195  	106.016575 
1085.989010  	103.172431 
1087.419826  	101.049947 
1088.850642  	100.384007 
1090.281457  	99.378981 
1091.712273  	98.787489 
1093.143088  	98.448684 
1094.573904  	97.922487 
1096.004719  	97.725548 
1097.435535  	97.421397 
1098.866351  	97.074761 
1100.297166  	96.934736 
1101.727982  	96.656282 
1103.158797  	96.559016 
1104.589613  	96.540894 
1106.020428  	96.325289 
1107.451244  	96.301713 
1108.882059  	96.251604 
1110.312875  	96.104397 
1111.743691  	96.139899 
1113.174506  	96.065600 
1114.605322  	95.948589 
1116.036137  	95.887334 
1117.466953  	95.657334 
1118.897768  	95.421630 
1120.328584  	95.166322 
1121.759399  	94.834618 
1123.190215  	94.607812 
1124.621031  	94.430314 
1126.051846  	94.374204 
1127.482662  	94.531511 
1128.913477  	94.697164 
1130.344293  	94.838185 
1131.775108  	94.926402 
1133.205924  	94.916551 
1134.636740  	94.935278 
1136.067555  	94.931073 
1137.498371  	94.886644 
1138.929186  	94.839464 
1140.360002  	94.693020 
1141.790817  	94.522242 
1143.221633  	94.364160 
1144.652448  	94.157137 
1146.083264  	93.909262 
1147.514080  	93.441130 
1148.944895  	92.592707 
1150.375711  	91.327908 
1151.806526  	89.833498 
1153.237342  	88.969142 
1154.668157  	89.418579 
1156.098973  	90.554502 
1157.529789  	91.375712 
1158.960604  	91.662511 
1160.391420  	91.673113 
1161.822235  	91.669462 
1163.253051  	91.731281 
1164.683866  	91.863966 
1166.114682  	92.068368 
1167.545497  	92.291834 
1168.976313  	92.526822 
1170.407129  	92.745513 
1171.837944  	92.905244 
1173.268760  	93.048742 
1174.699575  	93.179927 
1176.130391  	93.314494 
1177.561206  	93.463543 
1178.992022  	93.579782 
1180.422837  	93.701205 
1181.853653  	93.819581 
1183.284469  	93.900854 
1184.715284  	93.998755 
1186.146100  	94.074112 
1187.576915  	94.140382 
1189.007731  	94.254026 
1190.438546  	94.326096 
1191.869362  	94.377605 
1193.300178  	94.451118 
1194.730993  	94.486634 
1196.161809  	94.525849 
1197.592624  	94.562766 
1199.023440  	94.580975 
1200.454255  	94.625703 
1201.885071  	94.628279 
1203.315886  	94.614943 
1204.746702  	94.643837 
1206.177518  	94.640952 
1207.608333  	94.647508 
1209.039149  	94.676577 
1210.469964  	94.666737 
1211.900780  	94.679074 
1213.331595  	94.708647 
1214.762411  	94.715670 
1216.193226  	94.699405 
1217.624042  	94.622007 
1219.054858  	94.522968 
1220.485673  	94.401264 
1221.916489  	94.235258 
1223.347304  	94.077331 
1224.778120  	93.910041 
1226.208935  	93.786623 
1227.639751  	93.749681 
1229.070567  	93.698904 
1230.501382  	93.662787 
1231.932198  	93.656667 
1233.363013  	93.600121 
1234.793829  	93.533087 
1236.224644  	93.426309 
1237.655460  	93.229232 
1239.086275  	93.003285 
1240.517091  	92.721562 
1241.947907  	92.358927 
1243.378722  	91.998780 
1244.809538  	91.786102 
1246.240353  	91.900089 
1247.671169  	92.357363 
1249.101984  	92.960617 
1250.532800  	93.530040 
1251.963616  	93.935146 
1253.394431  	94.171545 
1254.825247  	94.320278 
1256.256062  	94.407078 
1257.686878  	94.454493 
1259.117693  	94.420392 
1260.548509  	94.352526 
1261.979324  	94.345523 
1263.410140  	94.218152 
1264.840956  	93.894141 
1266.271771  	93.510725 
1267.702587  	93.049500 
1269.133402  	92.515798 
1270.564218  	92.051043 
1271.995033  	91.841319 
1273.425849  	92.013357 
1274.856664  	92.435796 
1276.287480  	92.934094 
1277.718296  	93.433709 
1279.149111  	93.782830 
1280.579927  	93.975135 
1282.010742  	94.070119 
1283.441558  	94.014115 
1284.872373  	93.837516 
1286.303189  	93.522242 
1287.734005  	93.122805 
1289.164820  	92.835817 
1290.595636  	92.550259 
1292.026451  	92.175085 
1293.457267  	91.866498 
1294.888082  	91.585489 
1296.318898  	91.407795 
1297.749713  	91.525754 
1299.180529  	91.782908 
1300.611345  	92.110812 
1302.042160  	92.492974 
1303.472976  	92.797205 
1304.903791  	93.041859 
1306.334607  	93.111780 
1307.765422  	92.956995 
1309.196238  	92.708061 
1310.627053  	92.160029 
1312.057869  	91.278183 
1313.488685  	90.639060 
1314.919500  	90.542660 
1316.350316  	90.847299 
1317.781131  	91.479611 
1319.211947  	92.400182 
1320.642762  	93.444773 
1322.073578  	94.187654 
1323.504394  	94.566428 
1324.935209  	94.827864 
1326.366025  	95.008172 
1327.796840  	95.145322 
1329.227656  	95.270291 
1330.658471  	95.356879 
1332.089287  	95.489117 
1333.520102  	95.544556 
1334.950918  	95.371816 
1336.381734  	95.020322 
1337.812549  	94.405108 
1339.243365  	93.937411 
1340.674180  	94.553680 
1342.104996  	95.492673 
1343.535811  	95.798405 
1344.966627  	95.772132 
1346.397443  	95.841732 
1347.828258  	95.829340 
1349.259074  	95.761082 
1350.689889  	95.870992 
1352.120705  	95.931236 
1353.551520  	95.789177 
1354.982336  	95.740988 
1356.413151  	95.844922 
1357.843967  	95.889342 
1359.274783  	95.777690 
1360.705598  	95.273864 
1362.136414  	94.610664 
1363.567229  	95.014518 
1364.998045  	96.003880 
1366.428860  	96.274614 
1367.859676  	95.942556 
1369.290491  	95.933923 
1370.721307  	96.221989 
1372.152123  	95.930894 
1373.582938  	95.149075 
1375.013754  	95.309033 
1376.444569  	96.005014 
1377.875385  	96.096443 
1379.306200  	96.099367 
1380.737016  	96.338133 
1382.167832  	96.393882 
1383.598647  	96.388923 
1385.029463  	96.056527 
1386.460278  	95.196966 
1387.891094  	95.200089 
1389.321909  	95.870998 
1390.752725  	96.052888 
1392.183540  	95.820252 
1393.614356  	95.013459 
1395.045172  	94.263297 
1396.475987  	94.627599 
1397.906803  	94.707969 
1399.337618  	94.660042 
1400.768434  	95.514043 
1402.199249  	95.853320 
1403.630065  	95.201261 
1405.060880  	94.839761 
1406.491696  	95.183997 
1407.922512  	95.317075 
1409.353327  	94.984994 
1410.784143  	94.436814 
1412.214958  	94.091418 
1413.645774  	93.648580 
1415.076589  	92.437841 
1416.507405  	90.631206 
1417.938221  	88.376909 
1419.369036  	86.278127 
1420.799852  	85.979285 
1422.230667  	85.708316 
1423.661483  	84.978821 
1425.092298  	85.529183 
1426.523114  	86.606345 
1427.953929  	87.109298 
1429.384745  	87.767939 
1430.815561  	88.764340 
1432.246376  	89.463502 
1433.677192  	89.714638 
1435.108007  	89.235779 
1436.538823  	87.969647 
1437.969638  	87.872409 
1439.400454  	87.675401 
1440.831270  	86.148110 
1442.262085  	84.064317 
1443.692901  	82.057382 
1445.123716  	80.389178 
1446.554532  	79.551294 
1447.985347  	80.206313 
1449.416163  	82.247690 
1450.846978  	84.038852 
1452.277794  	85.260453 
1453.708610  	85.771716 
1455.139425  	85.188570 
1456.570241  	82.805556 
1458.001056  	81.636305 
1459.431872  	81.691919 
1460.862687  	81.043531 
1462.293503  	79.710937 
1463.724318  	77.932917 
1465.155134  	77.600601 
1466.585950  	78.818824 
1468.016765  	80.337662 
1469.447581  	81.891268 
1470.878396  	82.556380 
1472.309212  	84.040628 
1473.740027  	87.516750 
1475.170843  	89.717286 
1476.601659  	91.612474 
1478.032474  	93.318000 
1479.463290  	94.049930 
1480.894105  	94.107484 
1482.324921  	94.420714 
1483.755736  	94.881431 
1485.186552  	94.519230 
1486.617367  	93.631511 
1488.048183  	92.895019 
1489.478999  	92.181063 
1490.909814  	93.159093 
1492.340630  	94.840047 
1493.771445  	95.191754 
1495.202261  	94.337266 
1496.633076  	93.606429 
1498.063892  	93.957486 
1499.494707  	94.508146 
1500.925523  	94.888920 
1502.356339  	95.136315 
1503.787154  	94.945984 
1505.217970  	93.127056 
1506.648785  	89.069644 
1508.079601  	90.387766 
1509.510416  	92.818323 
1510.941232  	93.924483 
1512.372048  	94.477959 
1513.802863  	94.649654 
1515.233679  	93.685928 
1516.664494  	92.399711 
1518.095310  	93.373566 
1519.526125  	93.618329 
1520.956941  	91.765370 
1522.387756  	92.388013 
1523.818572  	93.718975 
1525.249388  	93.567556 
1526.680203  	93.598466 
1528.111019  	94.343153 
1529.541834  	95.008596 
1530.972650  	95.056784 
1532.403465  	93.879065 
1533.834281  	93.220980 
1535.265096  	94.548721 
1536.695912  	94.906839 
1538.126728  	93.506243 
1539.557543  	90.866117 
1540.988359  	91.137999 
1542.419174  	92.548227 
1543.849990  	92.764938 
1545.280805  	93.611794 
1546.711621  	95.197644 
1548.142437  	95.202811 
1549.573252  	94.053098 
1551.004068  	94.451086 
1552.434883  	94.848201 
1553.865699  	93.761288 
1555.296514  	93.222747 
1556.727330  	93.101191 
1558.158145  	90.098620 
1559.588961  	89.665424 
1561.019777  	93.403404 
1562.450592  	94.608351 
1563.881408  	94.384630 
1565.312223  	94.161162 
1566.743039  	94.536306 
1568.173854  	94.109107 
1569.604670  	93.383602 
1571.035486  	94.370762 
1572.466301  	95.096379 
1573.897117  	94.817817 
1575.327932  	93.703925 
1576.758748  	93.211769 
1578.189563  	94.213788 
1579.620379  	94.827570 
1581.051194  	94.680172 
1582.482010  	94.566974 
1583.912826  	94.609035 
1585.343641  	94.525505 
1586.774457  	94.499624 
1588.205272  	94.286878 
1589.636088  	93.918234 
1591.066903  	93.708995 
1592.497719  	93.354137 
1593.928534  	92.804288 
1595.359350  	92.213169 
1596.790166  	91.417489 
1598.220981  	90.113620 
1599.651797  	87.888377 
1601.082612  	85.288228 
1602.513428  	83.640665 
1603.944243  	83.689864 
1605.375059  	85.413327 
1606.805875  	87.615649 
1608.236690  	89.446527 
1609.667506  	90.930779 
1611.098321  	91.941963 
1612.529137  	92.399111 
1613.959952  	92.456448 
1615.390768  	91.806029 
1616.821583  	91.004053 
1618.252399  	91.455632 
1619.683215  	91.648792 
1621.114030  	91.106860 
1622.544846  	90.010383 
1623.975661  	89.517397 
1625.406477  	89.755039 
1626.837292  	89.280917 
1628.268108  	88.577830 
1629.698923  	88.621144 
1631.129739  	88.256416 
1632.560555  	87.466140 
1633.991370  	86.470360 
1635.422186  	84.449957 
1636.853001  	84.269204 
1638.283817  	85.149815 
1639.714632  	85.178383 
1641.145448  	84.825355 
1642.576264  	84.373966 
1644.007079  	83.658583 
1645.437895  	82.369739 
1646.868710  	80.597584 
1648.299526  	80.945630 
1649.730341  	81.751865 
1651.161157  	81.326597 
1652.591972  	79.040891 
1654.022788  	78.641724 
1655.453604  	79.949122 
1656.884419  	80.707183 
1658.315235  	80.643170 
1659.746050  	80.270019 
1661.176866  	79.946063 
1662.607681  	79.319001 
1664.038497  	79.826985 
1665.469313  	80.532022 
1666.900128  	80.242331 
1668.330944  	79.946342 
1669.761759  	80.157328 
1671.192575  	81.064284 
1672.623390  	82.493152 
1674.054206  	82.916537 
1675.485021  	83.381979 
1676.915837  	85.090839 
1678.346653  	85.654573 
1679.777468  	85.620719 
1681.208284  	86.264980 
1682.639099  	86.096241 
1684.069915  	85.325868 
1685.500730  	87.756224 
1686.931546  	89.234767 
1688.362361  	89.722661 
1689.793177  	90.227218 
1691.223993  	91.112960 
1692.654808  	91.703244 
1694.085624  	91.380443 
1695.516439  	89.974573 
1696.947255  	90.164012 
1698.378070  	90.984661 
1699.808886  	90.473115 
1701.239702  	91.058983 
1702.670517  	92.470058 
1704.101333  	92.539742 
1705.532148  	92.029410 
1706.962964  	93.025652 
1708.393779  	93.772115 
1709.824595  	93.816649 
1711.255410  	94.060225 
1712.686226  	93.740171 
1714.117042  	92.686820 
1715.547857  	92.218453 
1716.978673  	91.746087 
1718.409488  	92.313278 
1719.840304  	94.083316 
1721.271119  	94.821452 
1722.701935  	94.718691 
1724.132750  	94.806476 
1725.563566  	95.193987 
1726.994382  	95.291147 
1728.425197  	94.695123 
1729.856013  	93.948351 
1731.286828  	93.963251 
1732.717644  	93.442036 
1734.148459  	92.239712 
1735.579275  	93.925475 
1737.010091  	95.028725 
1738.440906  	94.558608 
1739.871722  	94.244702 
1741.302537  	94.699599 
1742.733353  	94.372604 
1744.164168  	94.239921 
1745.594984  	94.564099 
1747.025799  	94.042483 
1748.456615  	93.525537 
1749.887431  	93.696620 
1751.318246  	93.963256 
1752.749062  	95.077448 
1754.179877  	95.942360 
1755.610693  	95.551104 
1757.041508  	95.127707 
1758.472324  	95.730225 
1759.903140  	95.909666 
1761.333955  	95.470487 
1762.764771  	95.714733 
1764.195586  	96.538617 
1765.626402  	96.682493 
1767.057217  	95.885901 
1768.488033  	95.560611 
1769.918848  	95.612098 
1771.349664  	94.752895 
1772.780480  	94.659365 
1774.211295  	95.571925 
1775.642111  	95.947280 
1777.072926  	96.230348 
1778.503742  	96.200551 
1779.934557  	95.702506 
1781.365373  	95.894712 
1782.796188  	96.329433 
1784.227004  	96.134349 
1785.657820  	96.101716 
1787.088635  	96.439889 
1788.519451  	96.349265 
1789.950266  	95.630232 
1791.381082  	94.753054 
1792.811897  	94.879699 
1794.242713  	95.551885 
1795.673529  	95.759991 
1797.104344  	95.885807 
1798.535160  	95.951057 
1799.965975  	95.526328 
1801.396791  	95.373846 
1802.827606  	95.965399 
1804.258422  	96.431616 
1805.689237  	96.480495 
1807.120053  	96.362819 
1808.550869  	96.206433 
1809.981684  	96.016713 
1811.412500  	95.973582 
1812.843315  	96.397676 
1814.274131  	96.837626 
1815.704946  	96.744917 
1817.135762  	96.621802 
1818.566577  	96.846189 
1819.997393  	96.913581 
1821.428209  	96.892484 
1822.859024  	96.743191 
1824.289840  	96.161988 
1825.720655  	96.205068 
1827.151471  	96.672705 
1828.582286  	96.229953 
1830.013102  	95.842841 
1831.443918  	96.650037 
1832.874733  	97.184422 
1834.305549  	97.179594 
1835.736364  	97.060093 
1837.167180  	96.947991 
1838.597995  	96.982199 
1840.028811  	97.046388 
1841.459626  	96.750939 
1842.890442  	95.960596 
1844.321258  	95.465859 
1845.752073  	95.909414 
1847.182889  	96.278566 
1848.613704  	96.423246 
1850.044520  	96.733504 
1851.475335  	96.893615 
1852.906151  	96.786951 
1854.336967  	96.781557 
1855.767782  	96.743161 
1857.198598  	96.585171 
1858.629413  	96.515083 
1860.060229  	96.456377 
1861.491044  	96.448566 
1862.921860  	96.497803 
1864.352675  	96.365929 
1865.783491  	95.988196 
1867.214307  	95.327077 
1868.645122  	94.874836 
1870.075938  	95.472252 
1871.506753  	96.251601 
1872.937569  	96.526304 
1874.368384  	96.550756 
1875.799200  	96.560218 
1877.230015  	96.537313 
1878.660831  	96.503258 
1880.091647  	96.513603 
1881.522462  	96.577946 
1882.953278  	96.541734 
1884.384093  	96.419832 
1885.814909  	96.478400 
1887.245724  	96.429171 
1888.676540  	95.960392 
1890.107356  	95.867840 
1891.538171  	96.363540 
1892.968987  	96.446279 
1894.399802  	96.136393 
1895.830618  	96.187326 
1897.261433  	96.432923 
1898.692249  	96.503240 
1900.123064  	96.497427 
1901.553880  	96.463178 
1902.984696  	96.434668 
1904.415511  	96.425134 
1905.846327  	96.360796 
1907.277142  	96.196357 
1908.707958  	95.962318 
1910.138773  	95.997971 
1911.569589  	96.274974 
1913.000404  	96.334730 
1914.431220  	96.317034 
1915.862036  	96.203803 
1917.292851  	95.706358 
1918.723667  	95.694384 
1920.154482  	96.091178 
1921.585298  	95.795251 
1923.016113  	95.509042 
1924.446929  	96.009411 
1925.877745  	96.319665 
1927.308560  	96.288689 
1928.739376  	96.309746 
1930.170191  	96.298167 
1931.601007  	96.260976 
1933.031822  	96.235403 
1934.462638  	96.259450 
1935.893453  	96.319458 
1937.324269  	96.270785 
1938.755085  	96.259950 
1940.185900  	96.102348 
1941.616716  	95.563645 
1943.047531  	95.477158 
1944.478347  	95.918581 
1945.909162  	96.062157 
1947.339978  	96.102689 
1948.770794  	96.217963 
1950.201609  	96.196943 
1951.632425  	96.185620 
1953.063240  	96.154522 
1954.494056  	96.048555 
1955.924871  	96.066487 
1957.355687  	96.107629 
1958.786502  	96.089982 
1960.217318  	96.068263 
1961.648134  	96.017788 
1963.078949  	96.035109 
1964.509765  	95.973836 
1965.940580  	95.657023 
1967.371396  	95.546659 
1968.802211  	95.836899 
1970.233027  	96.033224 
1971.663842  	96.027214 
1973.094658  	96.023395 
1974.525474  	96.020694 
1975.956289  	95.999061 
1977.387105  	96.006232 
1978.817920  	96.009094 
1980.248736  	96.002500 
1981.679551  	96.009431 
1983.110367  	96.018089 
1984.541183  	96.049283 
1985.971998  	96.018082 
1987.402814  	95.899055 
1988.833629  	95.909632 
1990.264445  	95.897560 
1991.695260  	95.693890 
1993.126076  	95.831619 
1994.556891  	96.220541 
1995.987707  	96.281186 
1997.418523  	96.229286 
1998.849338  	96.241379 
2000.280154  	96.183144 
2001.710969  	96.160713 
2003.141785  	96.116203 
2004.572600  	96.006095 
2006.003416  	95.928863 
2007.434231  	95.827064 
2008.865047  	95.764232 
2010.295863  	95.762877 
2011.726678  	95.711522 
2013.157494  	95.698637 
2014.588309  	95.638582 
2016.019125  	95.415575 
2017.449940  	95.353033 
2018.880756  	95.539426 
2020.311572  	95.687360 
2021.742387  	95.731523 
2023.173203  	95.752478 
2024.604018  	95.807510 
2026.034834  	95.871529 
2027.465649  	95.914802 
2028.896465  	95.992426 
2030.327280  	96.069420 
2031.758096  	96.121540 
2033.188912  	96.207100 
2034.619727  	96.282057 
2036.050543  	96.346526 
2037.481358  	96.437576 
2038.912174  	96.469704 
2040.342989  	96.445559 
2041.773805  	96.493975 
2043.204621  	96.632538 
2044.635436  	96.748536 
2046.066252  	96.794327 
2047.497067  	96.836028 
2048.927883  	96.878824 
2050.358698  	96.907969 
2051.789514  	96.958275 
2053.220329  	96.999059 
2054.651145  	97.026464 
2056.081961  	97.077208 
2057.512776  	97.113397 
2058.943592  	97.125869 
2060.374407  	97.149787 
2061.805223  	97.172997 
2063.236038  	97.127708 
2064.666854  	97.035701 
2066.097669  	97.072023 
2067.528485  	97.183926 
2068.959301  	97.168787 
2070.390116  	97.111707 
2071.820932  	97.077513 
2073.251747  	96.999218 
2074.682563  	96.947937 
2076.113378  	96.908316 
2077.544194  	96.838338 
2078.975010  	96.822270 
2080.405825  	96.812484 
2081.836641  	96.784235 
2083.267456  	96.791039 
2084.698272  	96.775877 
2086.129087  	96.756363 
2087.559903  	96.741118 
2088.990718  	96.682036 
2090.421534  	96.667620 
2091.852350  	96.690909 
2093.283165  	96.675003 
2094.713981  	96.662368 
2096.144796  	96.641072 
2097.575612  	96.616836 
2099.006427  	96.628990 
2100.437243  	96.646361 
2101.868058  	96.698241 
2103.298874  	96.777997 
2104.729690  	96.850727 
2106.160505  	96.953608 
2107.591321  	97.045769 
2109.022136  	97.124003 
2110.452952  	97.232294 
2111.883767  	97.351524 
2113.314583  	97.516020 
2114.745399  	97.744345 
2116.176214  	98.169875 
2117.607030  	99.042511 
2119.037845  	100.468581 
2120.468661  	102.724333 
2121.899476  	105.294730 
2123.330292  	107.230220 
2124.761107  	107.269984 
2126.191923  	104.329629 
2127.622739  	101.191411 
2129.053554  	98.914871 
2130.484370  	97.480354 
2131.915185  	96.606475 
2133.346001  	96.079013 
2134.776816  	95.706188 
2136.207632  	95.447801 
2137.638448  	95.297298 
2139.069263  	95.165041 
2140.500079  	95.068902 
2141.930894  	95.011571 
2143.361710  	94.946670 
2144.792525  	94.912372 
2146.223341  	94.905158 
2147.654156  	94.911385 
2149.084972  	94.951469 
2150.515788  	94.992643 
2151.946603  	95.032299 
2153.377419  	95.071324 
2154.808234  	95.086507 
2156.239050  	95.100696 
2157.669865  	95.114288 
2159.100681  	95.122224 
2160.531496  	95.135120 
2161.962312  	95.142311 
2163.393128  	95.164099 
2164.823943  	95.193345 
2166.254759  	95.208013 
2167.685574  	95.239547 
2169.116390  	95.272462 
2170.547205  	95.296368 
2171.978021  	95.341345 
2173.408837  	95.384262 
2174.839652  	95.424151 
2176.270468  	95.469102 
2177.701283  	95.501197 
2179.132099  	95.541953 
2180.562914  	95.584167 
2181.993730  	95.617473 
2183.424545  	95.659909 
2184.855361  	95.687264 
2186.286177  	95.713788 
2187.716992  	95.760507 
2189.147808  	95.796387 
2190.578623  	95.832144 
2192.009439  	95.863718 
2193.440254  	95.884196 
2194.871070  	95.927498 
2196.301885  	95.963852 
2197.732701  	95.985117 
2199.163517  	96.024581 
2200.594332  	96.059782 
2202.025148  	96.098548 
2203.455963  	96.137364 
2204.886779  	96.147794 
2206.317594  	96.175247 
2207.748410  	96.216092 
2209.179226  	96.230416 
2210.610041  	96.244837 
2212.040857  	96.257177 
2213.471672  	96.259470 
2214.902488  	96.259861 
2216.333303  	96.235839 
2217.764119  	96.196717 
2219.194934  	96.147893 
2220.625750  	96.067176 
2222.056566  	95.950779 
2223.487381  	95.775698 
2224.918197  	95.548508 
2226.349012  	95.292505 
2227.779828  	94.981426 
2229.210643  	94.685324 
2230.641459  	94.521214 
2232.072275  	94.577529 
2233.503090  	95.083014 
2234.933906  	96.209748 
2236.364721  	98.164425 
2237.795537  	101.089825 
2239.226352  	105.123262 
2240.657168  	110.838770 
2242.087983  	116.814172 
2243.518799  	124.356664 
2244.949615  	130.701319 
2246.380430  	130.689482 
2247.811246  	136.449390 
2249.242061  	133.276618 
2250.672877  	130.551854 
2252.103692  	132.085864 
2253.534508  	123.215270 
2254.965323  	117.047903 
2256.396139  	110.597922 
2257.826955  	105.605088 
2259.257770  	102.777401 
2260.688586  	100.970205 
2262.119401  	99.897054 
2263.550217  	99.263519 
2264.981032  	98.852561 
2266.411848  	98.569042 
2267.842664  	98.372123 
2269.273479  	98.231189 
2270.704295  	98.118868 
2272.135110  	98.028462 
2273.565926  	97.948296 
2274.996741  	97.880707 
2276.427557  	97.833511 
2277.858372  	97.783683 
2279.289188  	97.729953 
2280.720004  	97.691629 
2282.150819  	97.661924 
2283.581635  	97.636534 
2285.012450  	97.614344 
2286.443266  	97.588908 
2287.874081  	97.568420 
2289.304897  	97.555022 
2290.735712  	97.540957 
2292.166528  	97.530036 
2293.597344  	97.521028 
2295.028159  	97.505410 
2296.458975  	97.493828 
2297.889790  	97.490886 
2299.320606  	97.471041 
2300.751421  	97.437621 
2302.182237  	97.423279 
2303.613053  	97.421043 
2305.043868  	97.415937 
2306.474684  	97.414854 
2307.905499  	97.413022 
2309.336315  	97.413423 
2310.767130  	97.420461 
2312.197946  	97.424740 
2313.628761  	97.432497 
2315.059577  	97.442304 
2316.490393  	97.443997 
2317.921208  	97.442325 
2319.352024  	97.443306 
2320.782839  	97.463365 
2322.213655  	97.494254 
2323.644470  	97.511376 
2325.075286  	97.542471 
2326.506101  	97.587755 
2327.936917  	97.613107 
2329.367733  	97.624748 
2330.798548  	97.618360 
2332.229364  	97.607444 
2333.660179  	97.622451 
2335.090995  	97.634888 
2336.521810  	97.639826 
2337.952626  	97.652037 
2339.383442  	97.638896 
2340.814257  	97.600606 
2342.245073  	97.563479 
2343.675888  	97.492693 
2345.106704  	97.310805 
2346.537519  	97.072810 
2347.968335  	96.973664 
2349.399150  	97.049368 
2350.829966  	97.186657 
2352.260782  	97.307435 
2353.691597  	97.401198 
2355.122413  	97.469044 
2356.553228  	97.530077 
2357.984044  	97.565932 
2359.414859  	97.550742 
2360.845675  	97.519792 
2362.276491  	97.478228 
2363.707306  	97.406554 
2365.138122  	97.314864 
2366.568937  	97.208058 
2367.999753  	97.097692 
2369.430568  	96.989157 
2370.861384  	96.878773 
2372.292199  	96.776320 
2373.723015  	96.674106 
2375.153831  	96.579418 
2376.584646  	96.508544 
2378.015462  	96.450059 
2379.446277  	96.414545 
2380.877093  	96.407043 
2382.307908  	96.409579 
2383.738724  	96.424961 
2385.169539  	96.443847 
2386.600355  	96.458184 
2388.031171  	96.476000 
2389.461986  	96.483252 
2390.892802  	96.487618 
2392.323617  	96.505121 
2393.754433  	96.513869 
2395.185248  	96.511996 
2396.616064  	96.511099 
2398.046880  	96.511240 
2399.477695  	96.520416 
2400.908511  	96.527950 
2402.339326  	96.528684 
2403.770142  	96.535493 
2405.200957  	96.539515 
2406.631773  	96.540939 
2408.062588  	96.546314 
2409.493404  	96.547431 
2410.924220  	96.550725 
2412.355035  	96.555173 
2413.785851  	96.553909 
2415.216666  	96.556821 
2416.647482  	96.559637 
2418.078297  	96.558581 
2419.509113  	96.561807 
2420.939928  	96.567642 
2422.370744  	96.577308 
2423.801560  	96.588812 
2425.232375  	96.599027 
2426.663191  	96.614488 
2428.094006  	96.630122 
2429.524822  	96.639349 
2430.955637  	96.639038 
2432.386453  	96.624667 
2433.817269  	96.604996 
2435.248084  	96.581055 
2436.678900  	96.549955 
2438.109715  	96.523166 
2439.540531  	96.500189 
2440.971346  	96.480133 
2442.402162  	96.466001 
2443.832977  	96.450231 
2445.263793  	96.439014 
2446.694609  	96.432379 
2448.125424  	96.421035 
2449.556240  	96.416268 
2450.987055  	96.416374 
2452.417871  	96.413491 
2453.848686  	96.414709 
2455.279502  	96.415998 
2456.710318  	96.420997 
2458.141133  	96.433254 
2459.571949  	96.439741 
2461.002764  	96.446171 
2462.433580  	96.454466 
2463.864395  	96.453742 
2465.295211  	96.449841 
2466.726026  	96.439328 
2468.156842  	96.416342 
2469.587658  	96.391305 
2471.018473  	96.365978 
2472.449289  	96.340221 
2473.880104  	96.316059 
2475.310920  	96.293905 
2476.741735  	96.278280 
2478.172551  	96.263004 
2479.603366  	96.244285 
2481.034182  	96.227162 
2482.464998  	96.208446 
2483.895813  	96.190738 
2485.326629  	96.177211 
2486.757444  	96.165869 
2488.188260  	96.159338 
2489.619075  	96.151982 
2491.049891  	96.145069 
2492.480707  	96.144888 
2493.911522  	96.142382 
2495.342338  	96.141323 
2496.773153  	96.148860 
2498.203969  	96.161294 
2499.634784  	96.184047 
2501.065600  	96.211726 
2502.496415  	96.240496 
2503.927231  	96.278190 
2505.358047  	96.313444 
2506.788862  	96.345441 
2508.219678  	96.382161 
2509.650493  	96.409340 
2511.081309  	96.423681 
2512.512124  	96.429736 
2513.942940  	96.427675 
2515.373755  	96.424856 
2516.804571  	96.416394 
2518.235387  	96.400504 
2519.666202  	96.385687 
2521.097018  	96.367851 
2522.527833  	96.349168 
2523.958649  	96.331159 
2525.389464  	96.307951 
2526.820280  	96.286993 
2528.251096  	96.267248 
2529.681911  	96.244520 
2531.112727  	96.226361 
2532.543542  	96.210304 
2533.974358  	96.196835 
2535.405173  	96.188902 
2536.835989  	96.182879 
2538.266804  	96.185680 
2539.697620  	96.197951 
2541.128436  	96.218350 
2542.559251  	96.255432 
2543.990067  	96.304392 
2545.420882  	96.361105 
2546.851698  	96.422416 
2548.282513  	96.472467 
2549.713329  	96.505955 
2551.144145  	96.522257 
2552.574960  	96.517957 
2554.005776  	96.497363 
2555.436591  	96.465064 
2556.867407  	96.428610 
2558.298222  	96.391209 
2559.729038  	96.349400 
2561.159853  	96.310518 
2562.590669  	96.275476 
2564.021485  	96.241790 
2565.452300  	96.215908 
2566.883116  	96.193357 
2568.313931  	96.176038 
2569.744747  	96.169095 
2571.175562  	96.163291 
2572.606378  	96.162575 
2574.037193  	96.168676 
2575.468009  	96.176305 
2576.898825  	96.195182 
2578.329640  	96.222135 
2579.760456  	96.251650 
2581.191271  	96.288246 
2582.622087  	96.325135 
2584.052902  	96.361522 
2585.483718  	96.391539 
2586.914534  	96.405413 
2588.345349  	96.411784 
2589.776165  	96.402153 
2591.206980  	96.372702 
2592.637796  	96.344411 
2594.068611  	96.311288 
2595.499427  	96.269293 
2596.930242  	96.230947 
2598.361058  	96.190606 
2599.791874  	96.153834 
2601.222689  	96.125714 
2602.653505  	96.098118 
2604.084320  	96.076742 
2605.515136  	96.054409 
2606.945951  	96.026927 
2608.376767  	96.009165 
2609.807582  	95.995095 
2611.238398  	95.982668 
2612.669214  	95.979331 
2614.100029  	95.977644 
2615.530845  	95.977797 
2616.961660  	95.976431 
2618.392476  	95.969001 
2619.823291  	95.965169 
2621.254107  	95.960972 
2622.684923  	95.953032 
2624.115738  	95.945755 
2625.546554  	95.934914 
2626.977369  	95.927672 
2628.408185  	95.927642 
2629.839000  	95.926378 
2631.269816  	95.924614 
2632.700631  	95.921432 
2634.131447  	95.919456 
2635.562263  	95.918376 
2636.993078  	95.906078 
2638.423894  	95.889837 
2639.854709  	95.876800 
2641.285525  	95.859701 
2642.716340  	95.845246 
2644.147156  	95.835604 
2645.577972  	95.827784 
2647.008787  	95.827823 
2648.439603  	95.834277 
2649.870418  	95.845827 
2651.301234  	95.860833 
2652.732049  	95.877058 
2654.162865  	95.898344 
2655.593680  	95.916797 
2657.024496  	95.929134 
2658.455312  	95.940944 
2659.886127  	95.945591 
2661.316943  	95.945414 
2662.747758  	95.944634 
2664.178574  	95.939091 
2665.609389  	95.935354 
2667.040205  	95.931770 
2668.471020  	95.924587 
2669.901836  	95.918829 
2671.332652  	95.910319 
2672.763467  	95.906671 
2674.194283  	95.913124 
2675.625098  	95.917666 
2677.055914  	95.927395 
2678.486729  	95.943085 
2679.917545  	95.953082 
2681.348361  	95.964526 
2682.779176  	95.975113 
2684.209992  	95.978422 
2685.640807  	95.978543 
2687.071623  	95.974105 
2688.502438  	95.972774 
2689.933254  	95.973946 
2691.364069  	95.965372 
2692.794885  	95.956528 
2694.225701  	95.951267 
2695.656516  	95.943563 
2697.087332  	95.939022 
2698.518147  	95.934424 
2699.948963  	95.926161 
2701.379778  	95.918766 
2702.810594  	95.913261 
2704.241409  	95.908866 
2705.672225  	95.900565 
2707.103041  	95.893538 
2708.533856  	95.893837 
2709.964672  	95.892262 
2711.395487  	95.893601 
2712.826303  	95.899654 
2714.257118  	95.900286 
2715.687934  	95.903586 
2717.118750  	95.907718 
2718.549565  	95.907004 
2719.980381  	95.908793 
2721.411196  	95.903486 
2722.842012  	95.893891 
2724.272827  	95.891717 
2725.703643  	95.886468 
2727.134458  	95.882516 
2728.565274  	95.882766 
2729.996090  	95.879050 
2731.426905  	95.880407 
2732.857721  	95.880009 
2734.288536  	95.873014 
2735.719352  	95.871368 
2737.150167  	95.864962 
2738.580983  	95.857353 
2740.011799  	95.858739 
2741.442614  	95.852678 
2742.873430  	95.841242 
2744.304245  	95.829163 
2745.735061  	95.809768 
2747.165876  	95.793962 
2748.596692  	95.778543 
2750.027507  	95.755776 
2751.458323  	95.732663 
2752.889139  	95.701831 
2754.319954  	95.664457 
2755.750770  	95.631522 
2757.181585  	95.598709 
2758.612401  	95.568784 
2760.043216  	95.548102 
2761.474032  	95.537190 
2762.904847  	95.537522 
2764.335663  	95.545544 
2765.766479  	95.560624 
2767.197294  	95.581920 
2768.628110  	95.601775 
2770.058925  	95.614226 
2771.489741  	95.619067 
2772.920556  	95.623475 
2774.351372  	95.626753 
2775.782188  	95.624887 
2777.213003  	95.623803 
2778.643819  	95.617877 
2780.074634  	95.607012 
2781.505450  	95.601178 
2782.936265  	95.590949 
2784.367081  	95.582374 
2785.797896  	95.584321 
2787.228712  	95.579163 
2788.659528  	95.575178 
2790.090343  	95.580125 
2791.521159  	95.578799 
2792.951974  	95.579805 
2794.382790  	95.581662 
2795.813605  	95.576845 
2797.244421  	95.580625 
2798.675236  	95.585956 
2800.106052  	95.586162 
2801.536868  	95.589497 
2802.967683  	95.587907 
2804.398499  	95.584579 
2805.829314  	95.582627 
2807.260130  	95.577059 
2808.690945  	95.581475 
2810.121761  	95.595287 
2811.552577  	95.609141 
2812.983392  	95.625267 
2814.414208  	95.636454 
2815.845023  	95.644000 
2817.275839  	95.654092 
2818.706654  	95.663778 
2820.137470  	95.675335 
2821.568285  	95.681256 
2822.999101  	95.677271 
2824.429917  	95.674884 
2825.860732  	95.675096 
2827.291548  	95.677827 
2828.722363  	95.680895 
2830.153179  	95.676538 
2831.583994  	95.670992 
2833.014810  	95.667804 
2834.445626  	95.666623 
2835.876441  	95.669034 
2837.307257  	95.668380 
2838.738072  	95.667255 
2840.168888  	95.670616 
2841.599703  	95.682420 
2843.030519  	95.711247 
2844.461334  	95.748227 
2845.892150  	95.798127 
2847.322966  	95.867973 
2848.753781  	95.917117 
2850.184597  	95.922127 
2851.615412  	95.894823 
2853.046228  	95.843464 
2854.477043  	95.793127 
2855.907859  	95.754630 
2857.338674  	95.720626 
2858.769490  	95.699124 
2860.200306  	95.675761 
2861.631121  	95.642569 
2863.061937  	95.617738 
2864.492752  	95.594296 
2865.923568  	95.569162 
2867.354383  	95.543730 
2868.785199  	95.506776 
2870.216015  	95.473891 
2871.646830  	95.450933 
2873.077646  	95.426253 
2874.508461  	95.411923 
2875.939277  	95.410398 
2877.370092  	95.416016 
2878.800908  	95.426177 
2880.231723  	95.427041 
2881.662539  	95.417634 
2883.093355  	95.400595 
2884.524170  	95.376386 
2885.954986  	95.356306 
2887.385801  	95.339154 
2888.816617  	95.323837 
2890.247432  	95.319029 
2891.678248  	95.321368 
2893.109063  	95.322571 
2894.539879  	95.317518 
2895.970695  	95.309036 
2897.401510  	95.293589 
2898.832326  	95.259288 
2900.263141  	95.218562 
2901.693957  	95.180069 
2903.124772  	95.136774 
2904.555588  	95.093326 
2905.986404  	95.046755 
2907.417219  	95.010778 
2908.848035  	95.001917 
2910.278850  	94.998769 
2911.709666  	95.018210 
2913.140481  	95.074893 
2914.571297  	95.121041 
2916.002112  	95.149570 
2917.432928  	95.159766 
2918.863744  	95.125468 
2920.294559  	95.073115 
2921.725375  	95.021145 
2923.156190  	94.975735 
2924.587006  	94.960087 
2926.017821  	94.953267 
2927.448637  	94.950367 
2928.879453  	94.962385 
2930.310268  	94.961511 
2931.741084  	94.953334 
2933.171899  	94.952778 
2934.602715  	94.959572 
2936.033530  	94.989541 
2937.464346  	95.021413 
2938.895161  	95.043690 
2940.325977  	95.081096 
2941.756793  	95.114664 
2943.187608  	95.128412 
2944.618424  	95.132813 
2946.049239  	95.123712 
2947.480055  	95.104780 
2948.910870  	95.078347 
2950.341686  	95.049374 
2951.772501  	95.026683 
2953.203317  	94.998265 
2954.634133  	94.968493 
2956.064948  	94.942960 
2957.495764  	94.904735 
2958.926579  	94.849196 
2960.357395  	94.773478 
2961.788210  	94.688127 
2963.219026  	94.601460 
2964.649842  	94.487314 
2966.080657  	94.349798 
2967.511473  	94.201078 
2968.942288  	94.030584 
2970.373104  	93.854531 
2971.803919  	93.668816 
2973.234735  	93.481730 
2974.665550  	93.347728 
2976.096366  	93.257103 
2977.527182  	93.193124 
2978.957997  	93.176317 
2980.388813  	93.191113 
2981.819628  	93.232876 
2983.250444  	93.290315 
2984.681259  	93.323758 
2986.112075  	93.326394 
2987.542890  	93.300617 
2988.973706  	93.261287 
2990.404522  	93.220168 
2991.835337  	93.158099 
2993.266153  	93.102114 
2994.696968  	93.080653 
2996.127784  	93.077028 
2997.558599  	93.093980 
2998.989415  	93.111300 
3000.420231  	93.103580 
3001.851046  	93.064243 
3003.281862  	92.964195 
3004.712677  	92.834148 
3006.143493  	92.700187 
3007.574308  	92.510917 
3009.005124  	92.273855 
3010.435939  	92.015154 
3011.866755  	91.744101 
3013.297571  	91.491864 
3014.728386  	91.226548 
3016.159202  	90.927134 
3017.590017  	90.611743 
3019.020833  	90.261761 
3020.451648  	89.904225 
3021.882464  	89.568535 
3023.313279  	89.251009 
3024.744095  	88.984843 
3026.174911  	88.779020 
3027.605726  	88.632561 
3029.036542  	88.517670 
3030.467357  	88.395138 
3031.898173  	88.334048 
3033.328988  	88.322783 
3034.759804  	88.261086 
3036.190620  	88.175553 
3037.621435  	88.063473 
3039.052251  	87.899494 
3040.483066  	87.746808 
3041.913882  	87.600036 
3043.344697  	87.447617 
3044.775513  	87.308230 
3046.206328  	87.147551 
3047.637144  	87.005986 
3049.067960  	86.945142 
3050.498775  	86.966008 
3051.929591  	87.064389 
3053.360406  	87.165877 
3054.791222  	87.229249 
3056.222037  	87.305014 
3057.652853  	87.388170 
3059.083669  	87.451376 
3060.514484  	87.467472 
3061.945300  	87.402597 
3063.376115  	87.266013 
3064.806931  	87.049253 
3066.237746  	86.759346 
3067.668562  	86.419585 
3069.099377  	86.007512 
3070.530193  	85.575719 
3071.961009  	85.217906 
3073.391824  	85.015778 
3074.822640  	85.068935 
3076.253455  	85.358415 
3077.684271  	85.816103 
3079.115086  	86.390143 
3080.545902  	86.974129 
3081.976717  	87.517782 
3083.407533  	88.002762 
3084.838349  	88.390232 
3086.269164  	88.709308 
3087.699980  	88.994113 
3089.130795  	89.244150 
3090.561611  	89.467081 
3091.992426  	89.647434 
3093.423242  	89.754940 
3094.854058  	89.768642 
3096.284873  	89.700335 
3097.715689  	89.558045 
3099.146504  	89.289335 
3100.577320  	88.929813 
3102.008135  	88.608680 
3103.438951  	88.361653 
3104.869766  	88.222050 
3106.300582  	88.256199 
3107.731398  	88.468983 
3109.162213  	88.840428 
3110.593029  	89.284277 
3112.023844  	89.703284 
3113.454660  	90.072627 
3114.885475  	90.368506 
3116.316291  	90.599763 
3117.747106  	90.794696 
3119.177922  	90.935527 
3120.608738  	91.018091 
3122.039553  	91.052649 
3123.470369  	91.071330 
3124.901184  	91.102046 
3126.332000  	91.111619 
3127.762815  	91.133592 
3129.193631  	91.206460 
3130.624447  	91.252618 
3132.055262  	91.274665 
3133.486078  	91.337588 
3134.916893  	91.422995 
3136.347709  	91.507407 
3137.778524  	91.572033 
3139.209340  	91.620044 
3140.640155  	91.670289 
3142.070971  	91.694126 
3143.501787  	91.703499 
3144.932602  	91.716444 
3146.363418  	91.708031 
3147.794233  	91.702633 
3149.225049  	91.695509 
3150.655864  	91.661568 
3152.086680  	91.635322 
3153.517496  	91.612915 
3154.948311  	91.585329 
3156.379127  	91.559004 
3157.809942  	91.512766 
3159.240758  	91.467243 
3160.671573  	91.421789 
3162.102389  	91.358154 
3163.533204  	91.306764 
3164.964020  	91.248975 
3166.394836  	91.176951 
3167.825651  	91.117032 
3169.256467  	91.049193 
3170.687282  	90.986702 
3172.118098  	90.925396 
3173.548913  	90.843553 
3174.979729  	90.773487 
3176.410544  	90.676917 
3177.841360  	90.556270 
3179.272176  	90.496345 
3180.702991  	90.443561 
3182.133807  	90.349702 
3183.564622  	90.244869 
3184.995438  	90.127534 
3186.426253  	90.030435 
3187.857069  	89.937817 
3189.287885  	89.813256 
3190.718700  	89.696073 
3192.149516  	89.564503 
3193.580331  	89.415622 
3195.011147  	89.271640 
3196.441962  	89.081948 
3197.872778  	88.898658 
3199.303593  	88.763441 
3200.734409  	88.608224 
3202.165225  	88.449756 
3203.596040  	88.291912 
3205.026856  	88.132197 
3206.457671  	88.009417 
3207.888487  	87.864652 
3209.319302  	87.715412 
3210.750118  	87.626283 
3212.180933  	87.513012 
3213.611749  	87.365805 
3215.042565  	87.248759 
3216.473380  	87.134761 
3217.904196  	86.986563 
3219.335011  	86.809288 
3220.765827  	86.662610 
3222.196642  	86.543029 
3223.627458  	86.378180 
3225.058274  	86.197355 
3226.489089  	86.012715 
3227.919905  	85.809648 
3229.350720  	85.631249 
3230.781536  	85.446846 
3232.212351  	85.265644 
3233.643167  	85.123604 
3235.073982  	84.962635 
3236.504798  	84.829122 
3237.935614  	84.756320 
3239.366429  	84.702085 
3240.797245  	84.743112 
3242.228060  	84.859717 
3243.658876  	84.980450 
3245.089691  	85.149846 
3246.520507  	85.284029 
3247.951323  	85.271830 
3249.382138  	85.085706 
3250.812954  	84.739650 
3252.243769  	84.360481 
3253.674585  	83.963714 
3255.105400  	83.566171 
3256.536216  	83.254518 
3257.967031  	82.943770 
3259.397847  	82.639658 
3260.828663  	82.386706 
3262.259478  	82.123024 
3263.690294  	81.903342 
3265.121109  	81.708579 
3266.551925  	81.493362 
3267.982740  	81.302720 
3269.413556  	81.058110 
3270.844371  	80.782754 
3272.275187  	80.509081 
3273.706003  	80.170771 
3275.136818  	79.881109 
3276.567634  	79.621636 
3277.998449  	79.328845 
3279.429265  	79.092124 
3280.860080  	78.826877 
3282.290896  	78.533831 
3283.721712  	78.302030 
3285.152527  	78.058555 
3286.583343  	77.835197 
3288.014158  	77.628651 
3289.444974  	77.394664 
3290.875789  	77.217236 
3292.306605  	77.057769 
3293.737420  	76.918888 
3295.168236  	76.834195 
3296.599052  	76.700927 
3298.029867  	76.588856 
3299.460683  	76.523306 
3300.891498  	76.405821 
3302.322314  	76.311869 
3303.753129  	76.229421 
3305.183945  	76.130808 
3306.614760  	76.053797 
3308.045576  	75.915789 
3309.476392  	75.798275 
3310.907207  	75.746710 
3312.338023  	75.636439 
3313.768838  	75.547201 
3315.199654  	75.472315 
3316.630469  	75.338431 
3318.061285  	75.232615 
3319.492101  	75.105527 
3320.922916  	74.955142 
3322.353732  	74.832255 
3323.784547  	74.655900 
3325.215363  	74.489097 
3326.646178  	74.343317 
3328.076994  	74.156043 
3329.507809  	73.999204 
3330.938625  	73.808689 
3332.369441  	73.572008 
3333.800256  	73.353587 
3335.231072  	73.072264 
3336.661887  	72.818289 
3338.092703  	72.629306 
3339.523518  	72.377090 
3340.954334  	72.124743 
3342.385150  	71.860770 
3343.815965  	71.559715 
3345.246781  	71.287631 
3346.677596  	70.963090 
3348.108412  	70.632740 
3349.539227  	70.332402 
3350.970043  	69.970492 
3352.400858  	69.639805 
3353.831674  	69.293040 
3355.262490  	68.870741 
3356.693305  	68.510421 
3358.124121  	68.130325 
3359.554936  	67.711056 
3360.985752  	67.321029 
3362.416567  	66.884423 
3363.847383  	66.469022 
3365.278198  	66.036143 
3366.709014  	65.541547 
3368.139830  	65.139217 
3369.570645  	64.735030 
3371.001461  	64.306779 
3372.432276  	63.911046 
3373.863092  	63.413888 
3375.293907  	62.924041 
3376.724723  	62.458669 
3378.155539  	61.923101 
3379.586354  	61.466678 
3381.017170  	60.991920 
3382.447985  	60.461432 
3383.878801  	59.984766 
3385.309616  	59.431584 
3386.740432  	58.912129 
3388.171247  	58.426017 
3389.602063  	57.822258 
3391.032879  	57.291596 
3392.463694  	56.768137 
3393.894510  	56.247269 
3395.325325  	55.839902 
3396.756141  	55.261746 
3398.186956  	54.677050 
3399.617772  	54.230452 
3401.048587  	53.691403 
3402.479403  	53.279979 
3403.910219  	52.886504 
3405.341034  	52.353679 
3406.771850  	51.927124 
3408.202665  	51.401593 
3409.633481  	50.883836 
3411.064296  	50.524413 
3412.495112  	50.025125 
3413.925928  	49.658146 
3415.356743  	49.368185 
3416.787559  	48.906523 
3418.218374  	48.573799 
3419.649190  	48.152141 
3421.080005  	47.719186 
3422.510821  	47.541558 
3423.941636  	47.194401 
3425.372452  	46.868257 
3426.803268  	46.607288 
3428.234083  	46.189203 
3429.664899  	46.013306 
3431.095714  	45.831099 
3432.526530  	45.520769 
3433.957345  	45.391175 
3435.388161  	45.163374 
3436.818977  	45.078673 
3438.249792  	45.175844 
3439.680608  	45.070789 
3441.111423  	45.052529 
3442.542239  	44.955200 
3443.973054  	44.790659 
3445.403870  	44.862192 
3446.834685  	44.719510 
3448.265501  	44.675833 
3449.696317  	44.868034 
3451.127132  	44.775195 
3452.557948  	44.789279 
3453.988763  	44.819638 
3455.419579  	44.657141 
3456.850394  	44.683823 
3458.281210  	44.561156 
3459.712025  	44.455117 
3461.142841  	44.604188 
3462.573657  	44.500408 
3464.004472  	44.428661 
3465.435288  	44.362871 
3466.866103  	44.142426 
3468.296919  	44.274678 
3469.727734  	44.402696 
3471.158550  	44.459708 
3472.589366  	44.649401 
3474.020181  	44.516716 
3475.450997  	44.414583 
3476.881812  	44.414647 
3478.312628  	44.195443 
3479.743443  	44.233712 
3481.174259  	44.309010 
3482.605074  	44.270033 
3484.035890  	44.381725 
3485.466706  	44.266921 
3486.897521  	44.237889 
3488.328337  	44.395479 
3489.759152  	44.333924 
3491.189968  	44.418549 
3492.620783  	44.447408 
3494.051599  	44.348942 
3495.482414  	44.494536 
3496.913230  	44.487745 
3498.344046  	44.556071 
3499.774861  	44.783791 
3501.205677  	44.704812 
3502.636492  	44.847794 
3504.067308  	45.228472 
3505.498123  	45.525089 
3506.928939  	45.931185 
3508.359755  	46.089473 
3509.790570  	46.219438 
3511.221386  	46.600086 
3512.652201  	46.828426 
3514.083017  	47.208563 
3515.513832  	47.688767 
3516.944648  	48.008229 
3518.375463  	48.450104 
3519.806279  	48.810192 
3521.237095  	49.068447 
3522.667910  	49.380687 
3524.098726  	49.729168 
3525.529541  	50.408686 
3526.960357  	51.064810 
3528.391172  	51.547085 
3529.821988  	52.277954 
3531.252804  	52.933762 
3532.683619  	53.526075 
3534.114435  	54.165500 
3535.545250  	54.577119 
3536.976066  	55.206609 
3538.406881  	56.034190 
3539.837697  	56.598393 
3541.268512  	57.126118 
3542.699328  	57.564709 
3544.130144  	57.947966 
3545.560959  	58.612745 
3546.991775  	59.402947 
3548.422590  	60.331324 
3549.853406  	61.195763 
3551.284221  	61.738622 
3552.715037  	62.366010 
3554.145852  	63.137549 
3555.576668  	63.838403 
3557.007484  	64.514351 
3558.438299  	65.024343 
3559.869115  	65.460036 
3561.299930  	65.967767 
3562.730746  	66.427807 
3564.161561  	66.794280 
3565.592377  	66.926001 
3567.023193  	67.266952 
3568.454008  	68.405012 
3569.884824  	69.528622 
3571.315639  	70.368909 
3572.746455  	71.015601 
3574.177270  	71.436961 
3575.608086  	71.897353 
3577.038901  	72.418056 
3578.469717  	72.866218 
3579.900533  	73.355913 
3581.331348  	73.770747 
3582.762164  	74.097625 
3584.192979  	74.397692 
3585.623795  	74.403477 
3587.054610  	74.380198 
3588.485426  	75.098792 
3589.916241  	76.086889 
3591.347057  	76.726844 
3592.777873  	76.970524 
3594.208688  	77.144235 
3595.639504  	77.561157 
3597.070319  	78.086181 
3598.501135  	78.583844 
3599.931950  	78.990065 
3601.362766  	79.392384 
3602.793582  	79.922374 
3604.224397  	80.327902 
3605.655213  	80.418878 
3607.086028  	80.359520 
3608.516844  	80.550779 
3609.947659  	81.107037 
3611.378475  	81.424527 
3612.809290  	81.439522 
3614.240106  	81.887263 
3615.670922  	82.529038 
3617.101737  	82.775988 
3618.532553  	82.880133 
3619.963368  	83.395428 
3621.394184  	84.242954 
3622.824999  	84.889742 
3624.255815  	85.159724 
3625.686631  	85.314815 
3627.117446  	85.191449 
3628.548262  	84.667440 
3629.979077  	85.335171 
3631.409893  	86.416767 
3632.840708  	86.912928 
3634.271524  	87.312899 
3635.702339  	87.837762 
3637.133155  	88.124366 
3638.563971  	88.364587 
3639.994786  	88.689537 
3641.425602  	88.805259 
3642.856417  	88.915302 
3644.287233  	89.034229 
3645.718048  	88.540872 
3647.148864  	87.657974 
3648.579679  	87.443076 
3650.010495  	87.701844 
3651.441311  	88.819346 
3652.872126  	90.170538 
3654.302942  	90.609314 
3655.733757  	90.415920 
3657.164573  	90.738848 
3658.595388  	91.308485 
3660.026204  	91.668694 
3661.457020  	91.924426 
3662.887835  	92.063433 
3664.318651  	92.106381 
3665.749466  	92.105628 
3667.180282  	91.874507 
3668.611097  	91.096944 
3670.041913  	90.509806 
3671.472728  	91.312653 
3672.903544  	91.922218 
3674.334360  	91.228712 
3675.765175  	90.832378 
3677.195991  	91.863492 
3678.626806  	92.449003 
3680.057622  	92.900859 
3681.488437  	93.417770 
3682.919253  	93.582520 
3684.350068  	93.563708 
3685.780884  	93.516951 
3687.211700  	93.094530 
3688.642515  	92.443578 
3690.073331  	92.382872 
3691.504146  	92.892041 
3692.934962  	93.626085 
3694.365777  	94.093608 
3695.796593  	94.215253 
3697.227409  	94.350943 
3698.658224  	94.424617 
3700.089040  	94.098442 
3701.519855  	93.804783 
3702.950671  	94.088935 
3704.381486  	94.376903 
3705.812302  	94.339873 
3707.243117  	94.113429 
3708.673933  	93.623248 
3710.104749  	92.923810 
3711.535564  	92.616256 
3712.966380  	93.010954 
3714.397195  	93.718907 
3715.828011  	94.226158 
3717.258826  	94.264374 
3718.689642  	94.096259 
3720.120458  	93.903025 
3721.551273  	93.552667 
3722.982089  	93.409225 
3724.412904  	93.426117 
3725.843720  	93.271087 
3727.274535  	93.585917 
3728.705351  	94.172420 
3730.136166  	94.089036 
3731.566982  	93.389329 
3732.997798  	92.656152 
3734.428613  	91.862111 
3735.859429  	91.778856 
3737.290244  	92.743276 
3738.721060  	93.291336 
3740.151875  	93.519005 
3741.582691  	93.751576 
3743.013506  	93.375138 
3744.444322  	92.440980 
3745.875138  	92.690966 
3747.305953  	93.117044 
3748.736769  	92.954433 
3750.167584  	92.481960 
3751.598400  	92.463294 
3753.029215  	93.164906 
3754.460031  	93.853250 
3755.890847  	94.028328 
3757.321662  	93.923023 
3758.752478  	93.795203 
3760.183293  	93.946223 
3761.614109  	94.503743 
3763.044924  	94.694740 
3764.475740  	94.272953 
3765.906555  	94.183827 
3767.337371  	94.465729 
3768.768187  	94.263545 
3770.199002  	94.158349 
3771.629818  	94.693642 
3773.060633  	95.070697 
3774.491449  	95.113961 
3775.922264  	95.084594 
3777.353080  	94.823786 
3778.783895  	94.352911 
3780.214711  	94.411103 
3781.645527  	94.853814 
3783.076342  	94.890633 
3784.507158  	94.663582 
3785.937973  	94.772594 
3787.368789  	95.053462 
3788.799604  	95.188596 
3790.230420  	95.225761 
3791.661236  	95.272722 
3793.092051  	95.254883 
3794.522867  	94.878219 
3795.953682  	94.225849 
3797.384498  	94.150164 
3798.815313  	94.376633 
3800.246129  	93.824196 
3801.676944  	93.196635 
3803.107760  	93.983461 
3804.538576  	94.668503 
3805.969391  	94.499636 
3807.400207  	94.364376 
3808.831022  	94.749478 
3810.261838  	94.940665 
3811.692653  	95.023899 
3813.123469  	95.020239 
3814.554284  	94.360763 
3815.985100  	93.548447 
3817.415916  	93.826533 
3818.846731  	93.939993 
3820.277547  	93.206377 
3821.708362  	93.197570 
3823.139178  	94.122190 
3824.569993  	94.459123 
3826.000809  	94.238542 
3827.431625  	94.320957 
3828.862440  	94.604880 
3830.293256  	94.433383 
3831.724071  	94.134166 
3833.154887  	94.104847 
3834.585702  	93.926574 
3836.016518  	93.623478 
3837.447333  	93.303691 
3838.878149  	92.920581 
3840.308965  	93.115374 
3841.739780  	93.680661 
3843.170596  	93.926149 
3844.601411  	94.176141 
3846.032227  	94.597921 
3847.463042  	94.671747 
3848.893858  	94.448446 
3850.324674  	94.165481 
3851.755489  	93.417394 
3853.186305  	92.628713 
3854.617120  	93.151973 
3856.047936  	93.653385 
3857.478751  	94.060828 
3858.909567  	94.453621 
3860.340382  	94.396025 
3861.771198  	94.046638 
3863.202014  	93.638849 
3864.632829  	93.371955 
3866.063645  	93.951377 
3867.494460  	94.344541 
3868.925276  	93.537292 
3870.356091  	93.176192 
3871.786907  	93.834108 
3873.217722  	93.841790 
3874.648538  	93.941492 
3876.079354  	94.674517 
3877.510169  	94.894523 
3878.940985  	94.238272 
3880.371800  	93.577915 
3881.802616  	93.911114 
3883.233431  	94.318631 
3884.664247  	93.997246 
3886.095063  	93.971503 
3887.525878  	94.674717 
3888.956694  	94.811246 
3890.387509  	94.270420 
3891.818325  	94.002176 
3893.249140  	94.291762 
3894.679956  	94.677244 
3896.110771  	94.797344 
3897.541587  	94.422117 
3898.972403  	93.892607 
3900.403218  	93.719184 
3901.834034  	93.645633 
3903.264849  	93.460548 
3904.695665  	93.641125 
3906.126480  	94.282492 
3907.557296  	94.905343 
3908.988111  	95.235665 
3910.418927  	95.272002 
3911.849743  	95.244812 
3913.280558  	95.227164 
3914.711374  	94.956049 
3916.142189  	94.523307 
3917.573005  	94.405893 
3919.003820  	94.503830 
3920.434636  	94.662932 
3921.865452  	94.780217 
3923.296267  	94.524539 
3924.727083  	94.343559 
3926.157898  	94.734118 
3927.588714  	94.972274 
3929.019529  	94.767512 
3930.450345  	94.509012 
3931.881160  	94.381141 
3933.311976  	94.594851 
3934.742792  	95.028800 
3936.173607  	95.173683 
3937.604423  	95.117889 
3939.035238  	95.151939 
3940.466054  	95.001124 
3941.896869  	94.582505 
3943.327685  	94.508960 
3944.758501  	94.843226 
3946.189316  	94.904867 
3947.620132  	94.624844 
3949.050947  	94.585240 
3950.481763  	94.866422 
3951.912578  	95.112407 
3953.343394  	95.226078 
3954.774209  	95.216389 
3956.205025  	95.146939 
3957.635841  	95.137193 
3959.066656  	95.130441 
3960.497472  	95.031615 
3961.928287  	94.973071 
3963.359103  	95.098424 
3964.789918  	95.252080 
3966.220734  	95.243657 
3967.651549  	95.154304 
3969.082365  	95.116540 
3970.513181  	95.120836 
3971.943996  	95.122436 
3973.374812  	95.073230 
3974.805627  	95.014147 
3976.236443  	95.067833 
3977.667258  	95.194138 
3979.098074  	95.247692 
3980.528890  	95.215937 
3981.959705  	95.200899 
3983.390521  	95.232151 
3984.821336  	95.247344 
3986.252152  	95.248967 
3987.682967  	95.223840 
3989.113783  	95.120716 
3990.544598  	95.067070 
3991.975414  	95.136601 
3993.406230  	95.172001 
3994.837045  	95.169200 
3996.267861  	95.228869 
3997.698676  	95.285012 
3999.129492  	95.290203 
4000.560307  	95.283689 