##TITLE=No Description
##DATA TYPE=INFRARED SPECTRUM
##XUNITS=1/CM
##YUNITS=%T
400.628357  	175.274756 
402.059173  	189.028662 
403.489988  	387.642701 
404.920804  	73.284600 
406.351619  	97.274355 
407.782435  	25.406165 
409.213250  	66.887466 
410.644066  	85.499557 
412.074881  	155.102483 
413.505697  	66.908861 
414.936513  	100.305563 
416.367328  	555.701973 
417.798144  	86.828423 
419.228959  	76.055643 
420.659775  	78.833168 
422.090590  	100.051846 
423.521406  	144.831919 
424.952221  	105.352880 
426.383037  	89.553245 
427.813853  	145.412005 
429.244668  	183.961756 
430.675484  	103.691181 
432.106299  	219.229713 
433.537115  	313.663925 
434.967930  	92.463618 
436.398746  	105.823481 
437.829562  	270.647995 
439.260377  	150.418288 
440.691193  	62.585972 
442.122008  	74.345686 
443.552824  	84.311863 
444.983639  	61.204321 
446.414455  	104.745968 
447.845270  	75.411643 
449.276086  	283.033890 
450.706902  	79.780648 
452.137717  	121.136286 
453.568533  	55.832583 
454.999348  	55.680224 
456.430164  	77.045835 
457.860979  	20.097458 
459.291795  	139.786383 
460.722611  	651.816520 
462.153426  	209.158295 
463.584242  	247.672002 
465.015057  	79.857560 
466.445873  	157.949400 
467.876688  	65.100974 
469.307504  	174.725562 
470.738319  	163.731833 
472.169135  	226.519222 
473.599951  	97.230014 
475.030766  	71.429778 
476.461582  	17.835239 
477.892397  	33.881432 
479.323213  	18.642909 
480.754028  	73.666945 
482.184844  	75.361590 
483.615659  	74.588392 
485.046475  	73.748785 
486.477291  	410.564978 
487.908106  	159.390689 
489.338922  	540.990633 
490.769737  	146.190021 
492.200553  	320.476222 
493.631368  	178.289852 
495.062184  	156.385504 
496.493000  	61.777808 
497.923815  	156.570456 
499.354631  	37.191927 
500.785446  	34.483273 
502.216262  	33.472008 
503.647077  	124.128517 
505.077893  	92.149468 
506.508708  	164.631294 
507.939524  	53.931605 
509.370340  	61.181372 
510.801155  	26.625988 
512.231971  	99.759046 
513.662786  	223.799435 
515.093602  	117.118341 
516.524417  	508.738340 
517.955233  	96.581851 
519.386048  	161.072426 
520.816864  	400.390750 
522.247680  	183.536457 
523.678495  	176.637782 
525.109311  	205.647071 
526.540126  	61.811526 
527.970942  	148.899514 
529.401757  	87.325972 
530.832573  	50.114749 
532.263389  	126.790056 
533.694204  	314.737619 
535.125020  	204.901175 
536.555835  	61.921535 
537.986651  	171.474621 
539.417466  	151.551830 
540.848282  	242.789718 
542.279097  	185.733185 
543.709913  	63.939837 
545.140729  	54.589840 
546.571544  	122.786268 
548.002360  	144.991450 
549.433175  	128.620289 
550.863991  	340.436936 
552.294806  	51.759995 
553.725622  	38.177480 
555.156438  	159.996850 
556.587253  	101.575894 
558.018069  	39.774454 
559.448884  	23.999474 
560.879700  	34.453398 
562.310515  	260.628559 
563.741331  	229.078724 
565.172146  	387.149716 
566.602962  	64.608819 
568.033778  	118.496388 
569.464593  	116.034464 
570.895409  	87.187380 
572.326224  	67.319339 
573.757040  	78.436969 
575.187855  	237.852177 
576.618671  	612.445316 
578.049486  	128.592164 
579.480302  	81.918977 
580.911118  	35.352547 
582.341933  	69.559755 
583.772749  	109.152621 
585.203564  	126.705990 
586.634380  	116.861783 
588.065195  	363.419895 
589.496011  	211.663324 
590.926827  	188.146242 
592.357642  	39.966996 
593.788458  	35.366156 
595.219273  	11.339845 
596.650089  	17.979599 
598.080904  	127.258031 
599.511720  	399.183065 
600.942535  	125.268741 
602.373351  	129.570305 
603.804167  	32.522666 
605.234982  	81.733174 
606.665798  	86.286520 
608.096613  	180.903996 
609.527429  	131.446892 
610.958244  	121.819939 
612.389060  	151.170741 
613.819875  	90.924137 
615.250691  	38.646037 
616.681507  	33.184236 
618.112322  	30.758120 
619.543138  	26.189283 
620.973953  	261.882750 
622.404769  	52.493620 
623.835584  	23.070787 
625.266400  	137.515516 
626.697216  	166.556435 
628.128031  	160.048943 
629.558847  	71.770099 
630.989662  	23.030535 
632.420478  	148.891841 
633.851293  	191.444185 
635.282109  	506.173650 
636.712924  	189.158753 
638.143740  	106.913359 
639.574556  	46.636117 
641.005371  	59.004529 
642.436187  	28.414569 
643.867002  	49.495390 
645.297818  	63.686169 
646.728633  	79.883145 
648.159449  	118.243321 
649.590265  	156.350127 
651.021080  	107.848367 
652.451896  	73.682309 
653.882711  	93.830322 
655.313527  	121.240221 
656.744342  	97.503518 
658.175158  	506.321566 
659.605973  	81.049383 
661.036789  	51.147969 
662.467605  	45.321102 
663.898420  	72.736040 
665.329236  	97.344344 
666.760051  	122.425059 
668.190867  	156.572508 
669.621682  	145.983845 
671.052498  	127.313097 
672.483313  	145.655866 
673.914129  	117.151069 
675.344945  	101.377439 
676.775760  	126.924966 
678.206576  	3056.317943 
679.637391  	378.467699 
681.068207  	116.939532 
682.499022  	539.062783 
683.929838  	337.355056 
685.360654  	515.668090 
686.791469  	56.595905 
688.222285  	23.863403 
689.653100  	37.006886 
691.083916  	101.043866 
692.514731  	131.639195 
693.945547  	34.008665 
695.376362  	80.740404 
696.807178  	136.300638 
698.237994  	93.012623 
699.668809  	53.243422 
701.099625  	131.342474 
702.530440  	120.587093 
703.961256  	139.587675 
705.392071  	286.858044 
706.822887  	1308.180935 
708.253702  	187.557004 
709.684518  	73.714257 
711.115334  	228.287896 
712.546149  	274.935777 
713.976965  	718.260983 
715.407780  	151.716791 
716.838596  	160.573634 
718.269411  	195.347429 
719.700227  	25.881280 
721.131043  	137.026390 
722.561858  	199.249006 
723.992674  	402.716569 
725.423489  	241.306961 
726.854305  	246.356449 
728.285120  	175.152601 
729.715936  	254.185437 
731.146751  	432.421952 
732.577567  	112.931345 
734.008383  	215.221213 
735.439198  	272.083880 
736.870014  	260.901194 
738.300829  	213.502364 
739.731645  	210.245637 
741.162460  	2735.891673 
742.593276  	2445.034828 
744.024092  	713.441964 
745.454907  	250.820329 
746.885723  	60.716995 
748.316538  	18.719528 
749.747354  	19.509505 
751.178169  	117.541130 
752.608985  	314.339969 
754.039800  	217.044098 
755.470616  	101.533395 
756.901432  	124.961884 
758.332247  	315.807891 
759.763063  	248.087159 
761.193878  	60.370549 
762.624694  	165.538267 
764.055509  	183.883355 
765.486325  	2181.924067 
766.917140  	908.615794 
768.347956  	220.585505 
769.778772  	148.624258 
771.209587  	80.340091 
772.640403  	29.605246 
774.071218  	109.082049 
775.502034  	151.366343 
776.932849  	118.212333 
778.363665  	102.292034 
779.794481  	126.034352 
781.225296  	281.857483 
782.656112  	111.334789 
784.086927  	72.558138 
785.517743  	372.264350 
786.948558  	134.870932 
788.379374  	79.868754 
789.810189  	171.938361 
791.241005  	106.037029 
792.671821  	159.951454 
794.102636  	178.378001 
795.533452  	175.017982 
796.964267  	158.524906 
798.395083  	130.506587 
799.825898  	126.446979 
801.256714  	145.855272 
802.687529  	113.714645 
804.118345  	114.037317 
805.549161  	135.915150 
806.979976  	128.666169 
808.410792  	106.470154 
809.841607  	101.612815 
811.272423  	111.955569 
812.703238  	120.063352 
814.134054  	114.749898 
815.564870  	109.583544 
816.995685  	114.259861 
818.426501  	110.822439 
819.857316  	108.161245 
821.288132  	114.321840 
822.718947  	109.838817 
824.149763  	103.540105 
825.580578  	101.735554 
827.011394  	96.011105 
828.442210  	95.301542 
829.873025  	99.586601 
831.303841  	99.212167 
832.734656  	97.836046 
834.165472  	97.395581 
835.596287  	97.099751 
837.027103  	97.509634 
838.457918  	97.252927 
839.888734  	98.462558 
841.319550  	102.337162 
842.750365  	102.107415 
844.181181  	98.587635 
845.611996  	98.423866 
847.042812  	100.481177 
848.473627  	101.377392 
849.904443  	100.452740 
851.335259  	98.586149 
852.766074  	97.568871 
854.196890  	97.643167 
855.627705  	98.675657 
857.058521  	99.736898 
858.489336  	99.253806 
859.920152  	98.474910 
861.350967  	98.624300 
862.781783  	98.871148 
864.212599  	98.877804 
865.643414  	98.386022 
867.074230  	97.867635 
868.505045  	98.130819 
869.935861  	98.247459 
871.366676  	98.257790 
872.797492  	98.827677 
874.228308  	98.806737 
875.659123  	98.142501 
877.089939  	97.923482 
878.520754  	97.917227 
879.951570  	98.008209 
881.382385  	98.403023 
882.813201  	98.345603 
884.244016  	97.411073 
885.674832  	96.499851 
887.105648  	96.326768 
888.536463  	96.255224 
889.967279  	96.083167 
891.398094  	96.603496 
892.828910  	97.445645 
894.259725  	97.495994 
895.690541  	97.831516 
897.121356  	98.461118 
898.552172  	97.917524 
899.982988  	96.781189 
901.413803  	96.637343 
902.844619  	97.421777 
904.275434  	97.913221 
905.706250  	97.905142 
907.137065  	97.632404 
908.567881  	97.205304 
909.998697  	97.022749 
911.429512  	97.006243 
912.860328  	96.996363 
914.291143  	97.270203 
915.721959  	97.873490 
917.152774  	98.366941 
918.583590  	97.666272 
920.014405  	93.550987 
921.445221  	86.868814 
922.876037  	81.227196 
924.306852  	79.007986 
925.737668  	77.535946 
927.168483  	77.972574 
928.599299  	78.681471 
930.030114  	72.553309 
931.460930  	68.262718 
932.891745  	70.551717 
934.322561  	72.553048 
935.753377  	75.458156 
937.184192  	77.878762 
938.615008  	77.885539 
940.045823  	75.423539 
941.476639  	72.316766 
942.907454  	71.252728 
944.338270  	70.201060 
945.769086  	68.196925 
947.199901  	68.586171 
948.630717  	68.496702 
950.061532  	69.916334 
951.492348  	74.704357 
952.923163  	74.293643 
954.353979  	71.413255 
955.784794  	71.492330 
957.215610  	70.328179 
958.646426  	66.631611 
960.077241  	62.735017 
961.508057  	63.114468 
962.938872  	70.609155 
964.369688  	76.965105 
965.800503  	81.086112 
967.231319  	83.807149 
968.662135  	85.576407 
970.092950  	87.131746 
971.523766  	88.225727 
972.954581  	89.252979 
974.385397  	90.774096 
975.816212  	92.122845 
977.247028  	92.705991 
978.677843  	92.633300 
980.108659  	92.546790 
981.539475  	92.872509 
982.970290  	92.966190 
984.401106  	92.447614 
985.831921  	92.009410 
987.262737  	91.459458 
988.693552  	90.466409 
990.124368  	90.003992 
991.555183  	89.346659 
992.985999  	87.302210 
994.416815  	85.350695 
995.847630  	83.807386 
997.278446  	81.287654 
998.709261  	77.676791 
1000.140077  	73.801609 
1001.570892  	71.025402 
1003.001708  	68.200036 
1004.432524  	66.926160 
1005.863339  	68.426896 
1007.294155  	68.722497 
1008.724970  	68.852399 
1010.155786  	68.488921 
1011.586601  	67.554746 
1013.017417  	68.674511 
1014.448232  	68.379674 
1015.879048  	66.991450 
1017.309864  	67.252651 
1018.740679  	66.411823 
1020.171495  	66.073730 
1021.602310  	66.698502 
1023.033126  	66.369262 
1024.463941  	67.088016 
1025.894757  	66.661561 
1027.325572  	65.783654 
1028.756388  	66.938481 
1030.187204  	66.840759 
1031.618019  	66.762976 
1033.048835  	67.462554 
1034.479650  	67.277482 
1035.910466  	68.338141 
1037.341281  	68.578421 
1038.772097  	67.764358 
1040.202913  	67.696770 
1041.633728  	65.997913 
1043.064544  	65.509816 
1044.495359  	67.429322 
1045.926175  	67.238617 
1047.356990  	67.609904 
1048.787806  	68.578723 
1050.218621  	67.861221 
1051.649437  	67.521552 
1053.080253  	66.223398 
1054.511068  	65.601253 
1055.941884  	66.789213 
1057.372699  	66.185253 
1058.803515  	66.579081 
1060.234330  	67.616459 
1061.665146  	66.782317 
1063.095962  	67.470402 
1064.526777  	67.699948 
1065.957593  	67.416428 
1067.388408  	68.906935 
1068.819224  	68.736793 
1070.250039  	68.667019 
1071.680855  	69.184602 
1073.111670  	68.596343 
1074.542486  	69.581898 
1075.973302  	69.945160 
1077.404117  	70.341054 
1078.834933  	73.033074 
1080.265748  	74.022489 
1081.696564  	75.240478 
1083.127379  	78.501401 
1084.558195  	81.905776 
1085.989010  	85.212222 
1087.419826  	87.566666 
1088.850642  	89.152752 
1090.281457  	90.795090 
1091.712273  	92.261025 
1093.143088  	93.153239 
1094.573904  	93.778866 
1096.004719  	94.497957 
1097.435535  	95.196328 
1098.866351  	95.617553 
1100.297166  	95.767413 
1101.727982  	95.959882 
1103.158797  	96.320021 
1104.589613  	96.619759 
1106.020428  	96.826788 
1107.451244  	97.029589 
1108.882059  	97.190657 
1110.312875  	97.383760 
1111.743691  	97.588536 
1113.174506  	97.679741 
1114.605322  	97.733636 
1116.036137  	97.771961 
1117.466953  	97.745049 
1118.897768  	97.675594 
1120.328584  	97.516430 
1121.759399  	97.314864 
1123.190215  	97.181929 
1124.621031  	97.098724 
1126.051846  	97.104755 
1127.482662  	97.226977 
1128.913477  	97.314145 
1130.344293  	97.297161 
1131.775108  	97.224498 
1133.205924  	97.052174 
1134.636740  	96.680370 
1136.067555  	96.012362 
1137.498371  	94.931852 
1138.929186  	93.450834 
1140.360002  	91.985518 
1141.790817  	91.275644 
1143.221633  	91.864204 
1144.652448  	93.445913 
1146.083264  	95.107296 
1147.514080  	96.297337 
1148.944895  	96.997751 
1150.375711  	97.343971 
1151.806526  	97.459651 
1153.237342  	97.411781 
1154.668157  	97.213314 
1156.098973  	96.932937 
1157.529789  	96.624587 
1158.960604  	96.312389 
1160.391420  	96.078168 
1161.822235  	95.971067 
1163.253051  	96.006440 
1164.683866  	96.178693 
1166.114682  	96.421335 
1167.545497  	96.688753 
1168.976313  	96.953132 
1170.407129  	97.176077 
1171.837944  	97.374345 
1173.268760  	97.548198 
1174.699575  	97.678116 
1176.130391  	97.811859 
1177.561206  	97.947306 
1178.992022  	98.056566 
1180.422837  	98.173582 
1181.853653  	98.278151 
1183.284469  	98.363363 
1184.715284  	98.468443 
1186.146100  	98.546806 
1187.576915  	98.587697 
1189.007731  	98.641456 
1190.438546  	98.688672 
1191.869362  	98.722449 
1193.300178  	98.749663 
1194.730993  	98.753432 
1196.161809  	98.759308 
1197.592624  	98.768600 
1199.023440  	98.759378 
1200.454255  	98.755764 
1201.885071  	98.753953 
1203.315886  	98.739175 
1204.746702  	98.731500 
1206.177518  	98.711862 
1207.608333  	98.662185 
1209.039149  	98.615184 
1210.469964  	98.558167 
1211.900780  	98.460314 
1213.331595  	98.361795 
1214.762411  	98.264181 
1216.193226  	98.113056 
1217.624042  	97.924692 
1219.054858  	97.718786 
1220.485673  	97.489007 
1221.916489  	97.269893 
1223.347304  	97.061860 
1224.778120  	96.883303 
1226.208935  	96.799339 
1227.639751  	96.776881 
1229.070567  	96.774205 
1230.501382  	96.805778 
1231.932198  	96.825762 
1233.363013  	96.797552 
1234.793829  	96.732338 
1236.224644  	96.601631 
1237.655460  	96.390914 
1239.086275  	96.121586 
1240.517091  	95.795395 
1241.947907  	95.397654 
1243.378722  	94.974200 
1244.809538  	94.724846 
1246.240353  	94.864859 
1247.671169  	95.395045 
1249.101984  	96.091717 
1250.532800  	96.715872 
1251.963616  	97.155885 
1253.394431  	97.406480 
1254.825247  	97.529259 
1256.256062  	97.605720 
1257.686878  	97.652785 
1259.117693  	97.616684 
1260.548509  	97.504514 
1261.979324  	97.351336 
1263.410140  	97.103532 
1264.840956  	96.721698 
1266.271771  	96.227181 
1267.702587  	95.638474 
1269.133402  	95.000203 
1270.564218  	94.443293 
1271.995033  	94.164790 
1273.425849  	94.253824 
1274.856664  	94.598056 
1276.287480  	94.996413 
1277.718296  	95.281932 
1279.149111  	95.350196 
1280.579927  	95.176415 
1282.010742  	94.793753 
1283.441558  	94.227921 
1284.872373  	93.497295 
1286.303189  	92.648395 
1287.734005  	91.751343 
1289.164820  	90.940452 
1290.595636  	90.357702 
1292.026451  	89.923471 
1293.457267  	89.658207 
1294.888082  	89.527814 
1296.318898  	89.290832 
1297.749713  	89.062550 
1299.180529  	88.619210 
1300.611345  	87.457525 
1302.042160  	85.615922 
1303.472976  	82.541786 
1304.903791  	77.538226 
1306.334607  	72.913734 
1307.765422  	68.490977 
1309.196238  	66.384005 
1310.627053  	67.817348 
1312.057869  	67.828581 
1313.488685  	70.551842 
1314.919500  	74.636659 
1316.350316  	78.715834 
1317.781131  	83.191718 
1319.211947  	85.913860 
1320.642762  	88.075051 
1322.073578  	89.920829 
1323.504394  	90.843569 
1324.935209  	91.312999 
1326.366025  	91.555415 
1327.796840  	91.697237 
1329.227656  	91.951021 
1330.658471  	91.958818 
1332.089287  	92.133919 
1333.520102  	92.799908 
1334.950918  	93.290444 
1336.381734  	93.768676 
1337.812549  	94.169510 
1339.243365  	94.290266 
1340.674180  	95.029036 
1342.104996  	96.102375 
1343.535811  	96.663508 
1344.966627  	96.872014 
1346.397443  	97.069899 
1347.828258  	97.160492 
1349.259074  	97.161211 
1350.689889  	97.231688 
1352.120705  	97.314152 
1353.551520  	97.278130 
1354.982336  	97.214362 
1356.413151  	97.260146 
1357.843967  	97.353074 
1359.274783  	97.420076 
1360.705598  	97.259801 
1362.136414  	96.757318 
1363.567229  	96.685854 
1364.998045  	97.251456 
1366.428860  	97.535345 
1367.859676  	97.295348 
1369.290491  	97.167490 
1370.721307  	97.366303 
1372.152123  	97.298091 
1373.582938  	96.660031 
1375.013754  	96.327516 
1376.444569  	96.548797 
1377.875385  	96.387047 
1379.306200  	96.031897 
1380.737016  	95.892917 
1382.167832  	95.459419 
1383.598647  	95.160669 
1385.029463  	94.918024 
1386.460278  	93.260695 
1387.891094  	91.368947 
1389.321909  	90.591051 
1390.752725  	89.885874 
1392.183540  	89.182749 
1393.614356  	85.793050 
1395.045172  	80.241081 
1396.475987  	77.901194 
1397.906803  	74.116957 
1399.337618  	68.727388 
1400.768434  	64.041891 
1402.199249  	63.719889 
1403.630065  	65.303002 
1405.060880  	61.056361 
1406.491696  	62.036801 
1407.922512  	63.286784 
1409.353327  	60.974901 
1410.784143  	63.698345 
1412.214958  	62.028483 
1413.645774  	60.177805 
1415.076589  	63.815301 
1416.507405  	63.514080 
1417.938221  	66.112907 
1419.369036  	63.668868 
1420.799852  	60.010257 
1422.230667  	66.792688 
1423.661483  	64.547676 
1425.092298  	60.983301 
1426.523114  	66.302380 
1427.953929  	63.649983 
1429.384745  	63.655761 
1430.815561  	64.586277 
1432.246376  	58.241790 
1433.677192  	65.456080 
1435.108007  	68.553562 
1436.538823  	61.132472 
1437.969638  	64.085448 
1439.400454  	62.056470 
1440.831270  	62.131386 
1442.262085  	65.508997 
1443.692901  	61.136937 
1445.123716  	67.834506 
1446.554532  	71.658368 
1447.985347  	72.647563 
1449.416163  	79.421801 
1450.846978  	82.854602 
1452.277794  	85.321021 
1453.708610  	87.844274 
1455.139425  	88.475047 
1456.570241  	86.248630 
1458.001056  	84.621371 
1459.431872  	83.892817 
1460.862687  	82.980718 
1462.293503  	81.694671 
1463.724318  	80.167139 
1465.155134  	79.709655 
1466.585950  	80.408017 
1468.016765  	81.950414 
1469.447581  	83.891114 
1470.878396  	85.417727 
1472.309212  	87.625431 
1473.740027  	90.447804 
1475.170843  	92.277339 
1476.601659  	93.766175 
1478.032474  	95.035088 
1479.463290  	95.811834 
1480.894105  	96.079222 
1482.324921  	96.287811 
1483.755736  	96.702403 
1485.186552  	96.759869 
1486.617367  	96.499333 
1488.048183  	96.315820 
1489.478999  	95.853802 
1490.909814  	95.982090 
1492.340630  	96.914284 
1493.771445  	97.401807 
1495.202261  	97.179545 
1496.633076  	96.787951 
1498.063892  	96.844714 
1499.494707  	97.094330 
1500.925523  	97.321542 
1502.356339  	97.720866 
1503.787154  	98.197871 
1505.217970  	97.826911 
1506.648785  	95.592414 
1508.079601  	95.448186 
1509.510416  	96.550784 
1510.941232  	97.102868 
1512.372048  	97.318933 
1513.802863  	97.624547 
1515.233679  	97.514678 
1516.664494  	96.860289 
1518.095310  	97.244579 
1519.526125  	97.677052 
1520.956941  	96.742818 
1522.387756  	96.644583 
1523.818572  	97.394750 
1525.249388  	97.283624 
1526.680203  	97.100764 
1528.111019  	97.381967 
1529.541834  	97.681137 
1530.972650  	97.956666 
1532.403465  	97.604143 
1533.834281  	96.911057 
1535.265096  	97.570343 
1536.695912  	98.262781 
1538.126728  	98.116392 
1539.557543  	96.969894 
1540.988359  	96.534513 
1542.419174  	96.933764 
1543.849990  	96.912798 
1545.280805  	96.966732 
1546.711621  	97.736707 
1548.142437  	97.944087 
1549.573252  	97.318727 
1551.004068  	97.520026 
1552.434883  	97.947559 
1553.865699  	97.475472 
1555.296514  	97.391015 
1556.727330  	97.866842 
1558.158145  	96.633682 
1559.588961  	94.937082 
1561.019777  	96.634467 
1562.450592  	97.580000 
1563.881408  	97.571294 
1565.312223  	97.399811 
1566.743039  	97.759179 
1568.173854  	97.848805 
1569.604670  	97.386657 
1571.035486  	97.626242 
1572.466301  	98.256553 
1573.897117  	98.550127 
1575.327932  	98.038117 
1576.758748  	97.328457 
1578.189563  	97.694602 
1579.620379  	98.028890 
1581.051194  	97.890721 
1582.482010  	97.864183 
1583.912826  	98.012199 
1585.343641  	98.046399 
1586.774457  	98.098752 
1588.205272  	98.055125 
1589.636088  	97.887585 
1591.066903  	97.799888 
1592.497719  	97.645035 
1593.928534  	97.330084 
1595.359350  	96.865052 
1596.790166  	96.124471 
1598.220981  	94.842969 
1599.651797  	92.653816 
1601.082612  	90.095605 
1602.513428  	88.455868 
1603.944243  	88.555011 
1605.375059  	90.527892 
1606.805875  	93.156214 
1608.236690  	95.420924 
1609.667506  	97.092689 
1611.098321  	98.171778 
1612.529137  	98.969319 
1613.959952  	99.648659 
1615.390768  	99.635792 
1616.821583  	98.851656 
1618.252399  	99.217342 
1619.683215  	100.069096 
1621.114030  	100.327436 
1622.544846  	99.869752 
1623.975661  	99.769789 
1625.406477  	100.379372 
1626.837292  	100.544486 
1628.268108  	100.290134 
1629.698923  	100.692341 
1631.129739  	101.424828 
1632.560555  	102.038130 
1633.991370  	102.015990 
1635.422186  	100.277831 
1636.853001  	99.943414 
1638.283817  	101.353579 
1639.714632  	101.898492 
1641.145448  	102.130906 
1642.576264  	102.943189 
1644.007079  	103.516651 
1645.437895  	102.896806 
1646.868710  	101.172918 
1648.299526  	101.762089 
1649.730341  	104.311203 
1651.161157  	105.468272 
1652.591972  	101.049404 
1654.022788  	99.304223 
1655.453604  	102.264144 
1656.884419  	103.596871 
1658.315235  	104.101925 
1659.746050  	104.697603 
1661.176866  	104.610447 
1662.607681  	103.419806 
1664.038497  	103.630375 
1665.469313  	105.078170 
1666.900128  	105.431055 
1668.330944  	104.256774 
1669.761759  	103.105614 
1671.192575  	103.367144 
1672.623390  	104.408655 
1674.054206  	103.755833 
1675.485021  	101.880607 
1676.915837  	102.687214 
1678.346653  	103.016072 
1679.777468  	102.165117 
1681.208284  	102.527474 
1682.639099  	102.139116 
1684.069915  	98.906432 
1685.500730  	99.284648 
1686.931546  	100.185918 
1688.362361  	99.943596 
1689.793177  	99.685359 
1691.223993  	99.774653 
1692.654808  	100.201876 
1694.085624  	100.189385 
1695.516439  	98.598659 
1696.947255  	98.567540 
1698.378070  	99.421109 
1699.808886  	98.008729 
1701.239702  	97.313891 
1702.670517  	98.604183 
1704.101333  	98.715514 
1705.532148  	98.006438 
1706.962964  	98.229279 
1708.393779  	98.472193 
1709.824595  	98.406275 
1711.255410  	98.562541 
1712.686226  	98.525165 
1714.117042  	98.151157 
1715.547857  	97.981712 
1716.978673  	97.415238 
1718.409488  	96.944216 
1719.840304  	97.654972 
1721.271119  	98.149639 
1722.701935  	98.043711 
1724.132750  	97.956875 
1725.563566  	98.126269 
1726.994382  	98.252794 
1728.425197  	98.047134 
1729.856013  	97.719814 
1731.286828  	97.951041 
1732.717644  	97.854936 
1734.148459  	96.514562 
1735.579275  	97.025590 
1737.010091  	98.001980 
1738.440906  	97.861296 
1739.871722  	97.441722 
1741.302537  	97.652362 
1742.733353  	97.485311 
1744.164168  	97.377007 
1745.594984  	97.655263 
1747.025799  	97.517604 
1748.456615  	97.250485 
1749.887431  	97.137180 
1751.318246  	96.876446 
1752.749062  	97.313432 
1754.179877  	97.925403 
1755.610693  	97.754222 
1757.041508  	97.376838 
1758.472324  	97.690548 
1759.903140  	97.857080 
1761.333955  	97.466996 
1762.764771  	97.324772 
1764.195586  	97.763156 
1765.626402  	97.992081 
1767.057217  	97.601958 
1768.488033  	97.459359 
1769.918848  	97.788243 
1771.349664  	97.445422 
1772.780480  	96.944678 
1774.211295  	97.292285 
1775.642111  	97.512416 
1777.072926  	97.639494 
1778.503742  	97.748621 
1779.934557  	97.476034 
1781.365373  	97.419423 
1782.796188  	97.655634 
1784.227004  	97.498066 
1785.657820  	97.407545 
1787.088635  	97.687512 
1788.519451  	97.808441 
1789.950266  	97.667732 
1791.381082  	97.245375 
1792.811897  	96.987507 
1794.242713  	97.288617 
1795.673529  	97.488332 
1797.104344  	97.561762 
1798.535160  	97.669777 
1799.965975  	97.439338 
1801.396791  	97.197028 
1802.827606  	97.429960 
1804.258422  	97.673866 
1805.689237  	97.742351 
1807.120053  	97.745808 
1808.550869  	97.701457 
1809.981684  	97.616152 
1811.412500  	97.483456 
1812.843315  	97.579086 
1814.274131  	97.838849 
1815.704946  	97.792889 
1817.135762  	97.683548 
1818.566577  	97.812796 
1819.997393  	97.829971 
1821.428209  	97.859614 
1822.859024  	97.900843 
1824.289840  	97.543679 
1825.720655  	97.441789 
1827.151471  	97.816995 
1828.582286  	97.701310 
1830.013102  	97.252758 
1831.443918  	97.448787 
1832.874733  	97.767693 
1834.305549  	97.799109 
1835.736364  	97.754738 
1837.167180  	97.751549 
1838.597995  	97.764138 
1840.028811  	97.876316 
1841.459626  	97.960575 
1842.890442  	97.646522 
1844.321258  	97.185900 
1845.752073  	97.335698 
1847.182889  	97.570523 
1848.613704  	97.597148 
1850.044520  	97.734865 
1851.475335  	97.857740 
1852.906151  	97.801183 
1854.336967  	97.801810 
1855.767782  	97.799037 
1857.198598  	97.711247 
1858.629413  	97.698662 
1860.060229  	97.688026 
1861.491044  	97.683566 
1862.921860  	97.760111 
1864.352675  	97.788501 
1865.783491  	97.753559 
1867.214307  	97.543129 
1868.645122  	97.140494 
1870.075938  	97.193601 
1871.506753  	97.574959 
1872.937569  	97.730998 
1874.368384  	97.734035 
1875.799200  	97.749012 
1877.230015  	97.726806 
1878.660831  	97.705525 
1880.091647  	97.693235 
1881.522462  	97.706903 
1882.953278  	97.730531 
1884.384093  	97.679910 
1885.814909  	97.719858 
1887.245724  	97.791704 
1888.676540  	97.566312 
1890.107356  	97.414349 
1891.538171  	97.672570 
1892.968987  	97.794563 
1894.399802  	97.663107 
1895.830618  	97.667390 
1897.261433  	97.786641 
1898.692249  	97.855126 
1900.123064  	97.876527 
1901.553880  	97.873618 
1902.984696  	97.900012 
1904.415511  	97.917551 
1905.846327  	97.901880 
1907.277142  	97.869399 
1908.707958  	97.742899 
1910.138773  	97.691263 
1911.569589  	97.810792 
1913.000404  	97.844003 
1914.431220  	97.870009 
1915.862036  	97.886160 
1917.292851  	97.583715 
1918.723667  	97.444261 
1920.154482  	97.676059 
1921.585298  	97.575643 
1923.016113  	97.339885 
1924.446929  	97.519418 
1925.877745  	97.673530 
1927.308560  	97.641855 
1928.739376  	97.640610 
1930.170191  	97.617274 
1931.601007  	97.588169 
1933.031822  	97.579534 
1934.462638  	97.570902 
1935.893453  	97.599366 
1937.324269  	97.596441 
1938.755085  	97.628428 
1940.185900  	97.636772 
1941.616716  	97.371483 
1943.047531  	97.225962 
1944.478347  	97.454882 
1945.909162  	97.565646 
1947.339978  	97.581521 
1948.770794  	97.684068 
1950.201609  	97.712237 
1951.632425  	97.753647 
1953.063240  	97.818805 
1954.494056  	97.798610 
1955.924871  	97.846945 
1957.355687  	97.924015 
1958.786502  	97.938954 
1960.217318  	97.965201 
1961.648134  	97.966664 
1963.078949  	97.997050 
1964.509765  	98.022862 
1965.940580  	97.868086 
1967.371396  	97.754205 
1968.802211  	97.868139 
1970.233027  	97.958657 
1971.663842  	97.950797 
1973.094658  	97.940098 
1974.525474  	97.925261 
1975.956289  	97.909739 
1977.387105  	97.890749 
1978.817920  	97.858919 
1980.248736  	97.839260 
1981.679551  	97.816159 
1983.110367  	97.788775 
1984.541183  	97.797439 
1985.971998  	97.782807 
1987.402814  	97.717220 
1988.833629  	97.713674 
1990.264445  	97.667441 
1991.695260  	97.470940 
1993.126076  	97.459521 
1994.556891  	97.643418 
1995.987707  	97.661307 
1997.418523  	97.601853 
1998.849338  	97.598401 
2000.280154  	97.549411 
2001.710969  	97.528813 
2003.141785  	97.529000 
2004.572600  	97.494338 
2006.003416  	97.503386 
2007.434231  	97.494298 
2008.865047  	97.480257 
2010.295863  	97.524202 
2011.726678  	97.538206 
2013.157494  	97.575046 
2014.588309  	97.606130 
2016.019125  	97.504469 
2017.449940  	97.461090 
2018.880756  	97.568451 
2020.311572  	97.651719 
2021.742387  	97.688809 
2023.173203  	97.716011 
2024.604018  	97.742061 
2026.034834  	97.779187 
2027.465649  	97.799370 
2028.896465  	97.825133 
2030.327280  	97.864450 
2031.758096  	97.885021 
2033.188912  	97.915536 
2034.619727  	97.946752 
2036.050543  	97.964799 
2037.481358  	98.009172 
2038.912174  	98.038139 
2040.342989  	98.021683 
2041.773805  	98.036516 
2043.204621  	98.108551 
2044.635436  	98.177372 
2046.066252  	98.210173 
2047.497067  	98.238989 
2048.927883  	98.278507 
2050.358698  	98.302772 
2051.789514  	98.326030 
2053.220329  	98.360260 
2054.651145  	98.386399 
2056.081961  	98.417475 
2057.512776  	98.447419 
2058.943592  	98.454003 
2060.374407  	98.465956 
2061.805223  	98.486495 
2063.236038  	98.461372 
2064.666854  	98.403435 
2066.097669  	98.413016 
2067.528485  	98.480900 
2068.959301  	98.498159 
2070.390116  	98.485469 
2071.820932  	98.490233 
2073.251747  	98.472228 
2074.682563  	98.457495 
2076.113378  	98.456039 
2077.544194  	98.432384 
2078.975010  	98.429065 
2080.405825  	98.434261 
2081.836641  	98.422214 
2083.267456  	98.432723 
2084.698272  	98.433894 
2086.129087  	98.424617 
2087.559903  	98.432539 
2088.990718  	98.414077 
2090.421534  	98.411326 
2091.852350  	98.456419 
2093.283165  	98.484133 
2094.713981  	98.502634 
2096.144796  	98.525593 
2097.575612  	98.541872 
2099.006427  	98.570037 
2100.437243  	98.594067 
2101.868058  	98.617809 
2103.298874  	98.648015 
2104.729690  	98.659831 
2106.160505  	98.677408 
2107.591321  	98.701766 
2109.022136  	98.715673 
2110.452952  	98.746438 
2111.883767  	98.779242 
2113.314583  	98.799050 
2114.745399  	98.829199 
2116.176214  	98.870421 
2117.607030  	98.917877 
2119.037845  	98.959453 
2120.468661  	98.994344 
2121.899476  	99.030649 
2123.330292  	99.052721 
2124.761107  	99.079976 
2126.191923  	99.121369 
2127.622739  	99.145428 
2129.053554  	99.169752 
2130.484370  	99.202276 
2131.915185  	99.228342 
2133.346001  	99.261318 
2134.776816  	99.284487 
2136.207632  	99.301674 
2137.638448  	99.339501 
2139.069263  	99.370021 
2140.500079  	99.392464 
2141.930894  	99.419966 
2143.361710  	99.433180 
2144.792525  	99.446843 
2146.223341  	99.463703 
2147.654156  	99.475088 
2149.084972  	99.501923 
2150.515788  	99.530089 
2151.946603  	99.551125 
2153.377419  	99.576587 
2154.808234  	99.586747 
2156.239050  	99.590124 
2157.669865  	99.599976 
2159.100681  	99.596843 
2160.531496  	99.587425 
2161.962312  	99.579758 
2163.393128  	99.571031 
2164.823943  	99.564631 
2166.254759  	99.549954 
2167.685574  	99.530323 
2169.116390  	99.511774 
2170.547205  	99.487388 
2171.978021  	99.466483 
2173.408837  	99.445854 
2174.839652  	99.420232 
2176.270468  	99.401447 
2177.701283  	99.382948 
2179.132099  	99.362872 
2180.562914  	99.346697 
2181.993730  	99.331617 
2183.424545  	99.323495 
2184.855361  	99.314836 
2186.286177  	99.302852 
2187.716992  	99.298077 
2189.147808  	99.291362 
2190.578623  	99.284399 
2192.009439  	99.278162 
2193.440254  	99.264371 
2194.871070  	99.254205 
2196.301885  	99.238991 
2197.732701  	99.217537 
2199.163517  	99.206026 
2200.594332  	99.183373 
2202.025148  	99.155168 
2203.455963  	99.138611 
2204.886779  	99.110993 
2206.317594  	99.086340 
2207.748410  	99.071584 
2209.179226  	99.042083 
2210.610041  	99.017325 
2212.040857  	99.001202 
2213.471672  	98.981908 
2214.902488  	98.972304 
2216.333303  	98.960455 
2217.764119  	98.948342 
2219.194934  	98.943500 
2220.625750  	98.925011 
2222.056566  	98.906683 
2223.487381  	98.896528 
2224.918197  	98.880103 
2226.349012  	98.867125 
2227.779828  	98.849495 
2229.210643  	98.821371 
2230.641459  	98.796203 
2232.072275  	98.770462 
2233.503090  	98.748716 
2234.933906  	98.730080 
2236.364721  	98.703194 
2237.795537  	98.676498 
2239.226352  	98.647132 
2240.657168  	98.606214 
2242.087983  	98.564583 
2243.518799  	98.536695 
2244.949615  	98.529521 
2246.380430  	98.531688 
2247.811246  	98.537300 
2249.242061  	98.552799 
2250.672877  	98.571427 
2252.103692  	98.594535 
2253.534508  	98.615734 
2254.965323  	98.619449 
2256.396139  	98.621523 
2257.826955  	98.623533 
2259.257770  	98.618144 
2260.688586  	98.619554 
2262.119401  	98.616575 
2263.550217  	98.611973 
2264.981032  	98.619648 
2266.411848  	98.618018 
2267.842664  	98.613662 
2269.273479  	98.610219 
2270.704295  	98.588508 
2272.135110  	98.567493 
2273.565926  	98.545991 
2274.996741  	98.513454 
2276.427557  	98.490813 
2277.858372  	98.470195 
2279.289188  	98.447730 
2280.720004  	98.433502 
2282.150819  	98.417760 
2283.581635  	98.412176 
2285.012450  	98.416719 
2286.443266  	98.411443 
2287.874081  	98.406819 
2289.304897  	98.402765 
2290.735712  	98.393789 
2292.166528  	98.389294 
2293.597344  	98.380208 
2295.028159  	98.370736 
2296.458975  	98.367212 
2297.889790  	98.352128 
2299.320606  	98.337021 
2300.751421  	98.336617 
2302.182237  	98.335685 
2303.613053  	98.332783 
2305.043868  	98.334008 
2306.474684  	98.334396 
2307.905499  	98.334975 
2309.336315  	98.343197 
2310.767130  	98.353562 
2312.197946  	98.359797 
2313.628761  	98.385847 
2315.059577  	98.438376 
2316.490393  	98.482272 
2317.921208  	98.500372 
2319.352024  	98.499213 
2320.782839  	98.500573 
2322.213655  	98.522473 
2323.644470  	98.563704 
2325.075286  	98.644257 
2326.506101  	98.743014 
2327.936917  	98.793207 
2329.367733  	98.801917 
2330.798548  	98.810502 
2332.229364  	98.868605 
2333.660179  	99.026597 
2335.090995  	99.215684 
2336.521810  	99.326448 
2337.952626  	99.317231 
2339.383442  	99.194986 
2340.814257  	99.030264 
2342.245073  	98.875275 
2343.675888  	98.676003 
2345.106704  	98.419155 
2346.537519  	98.320874 
2347.968335  	98.527087 
2349.399150  	98.839550 
2350.829966  	99.041521 
2352.260782  	99.138458 
2353.691597  	99.204659 
2355.122413  	99.216866 
2356.553228  	99.230290 
2357.984044  	99.239725 
2359.414859  	99.198299 
2360.845675  	99.168699 
2362.276491  	99.093567 
2363.707306  	98.949455 
2365.138122  	98.823071 
2366.568937  	98.683405 
2367.999753  	98.537538 
2369.430568  	98.414716 
2370.861384  	98.286756 
2372.292199  	98.178862 
2373.723015  	98.085000 
2375.153831  	98.002105 
2376.584646  	97.958901 
2378.015462  	97.939941 
2379.446277  	97.963876 
2380.877093  	98.030530 
2382.307908  	98.096307 
2383.738724  	98.173731 
2385.169539  	98.250832 
2386.600355  	98.298120 
2388.031171  	98.339279 
2389.461986  	98.373059 
2390.892802  	98.401146 
2392.323617  	98.433720 
2393.754433  	98.447600 
2395.185248  	98.463156 
2396.616064  	98.488314 
2398.046880  	98.496022 
2399.477695  	98.507099 
2400.908511  	98.514567 
2402.339326  	98.506211 
2403.770142  	98.510777 
2405.200957  	98.511197 
2406.631773  	98.505398 
2408.062588  	98.510933 
2409.493404  	98.501883 
2410.924220  	98.492116 
2412.355035  	98.494622 
2413.785851  	98.484853 
2415.216666  	98.478986 
2416.647482  	98.478251 
2418.078297  	98.469158 
2419.509113  	98.467763 
2420.939928  	98.464431 
2422.370744  	98.455319 
2423.801560  	98.452880 
2425.232375  	98.447551 
2426.663191  	98.444227 
2428.094006  	98.447063 
2429.524822  	98.447511 
2430.955637  	98.449386 
2432.386453  	98.452807 
2433.817269  	98.459822 
2435.248084  	98.467560 
2436.678900  	98.469205 
2438.109715  	98.474116 
2439.540531  	98.480496 
2440.971346  	98.487618 
2442.402162  	98.498046 
2443.832977  	98.499006 
2445.263793  	98.503355 
2446.694609  	98.517045 
2448.125424  	98.522112 
2449.556240  	98.527946 
2450.987055  	98.534040 
2452.417871  	98.538926 
2453.848686  	98.554840 
2455.279502  	98.561186 
2456.710318  	98.562155 
2458.141133  	98.573866 
2459.571949  	98.574317 
2461.002764  	98.573215 
2462.433580  	98.576276 
2463.864395  	98.567005 
2465.295211  	98.566179 
2466.726026  	98.568943 
2468.156842  	98.559051 
2469.587658  	98.551586 
2471.018473  	98.536943 
2472.449289  	98.519656 
2473.880104  	98.516454 
2475.310920  	98.507175 
2476.741735  	98.493543 
2478.172551  	98.487029 
2479.603366  	98.478943 
2481.034182  	98.472061 
2482.464998  	98.461111 
2483.895813  	98.446594 
2485.326629  	98.443079 
2486.757444  	98.441482 
2488.188260  	98.435658 
2489.619075  	98.432404 
2491.049891  	98.430715 
2492.480707  	98.430367 
2493.911522  	98.430105 
2495.342338  	98.430000 
2496.773153  	98.428184 
2498.203969  	98.422673 
2499.634784  	98.421476 
2501.065600  	98.422632 
2502.496415  	98.424802 
2503.927231  	98.430293 
2505.358047  	98.427396 
2506.788862  	98.422327 
2508.219678  	98.420867 
2509.650493  	98.412432 
2511.081309  	98.408320 
2512.512124  	98.407044 
2513.942940  	98.401038 
2515.373755  	98.407839 
2516.804571  	98.419074 
2518.235387  	98.426860 
2519.666202  	98.441508 
2521.097018  	98.450300 
2522.527833  	98.453722 
2523.958649  	98.456773 
2525.389464  	98.454952 
2526.820280  	98.462534 
2528.251096  	98.467626 
2529.681911  	98.459791 
2531.112727  	98.461321 
2532.543542  	98.459967 
2533.974358  	98.450116 
2535.405173  	98.451279 
2536.835989  	98.449883 
2538.266804  	98.443494 
2539.697620  	98.441699 
2541.128436  	98.437447 
2542.559251  	98.437004 
2543.990067  	98.436756 
2545.420882  	98.430792 
2546.851698  	98.431740 
2548.282513  	98.432541 
2549.713329  	98.426975 
2551.144145  	98.424208 
2552.574960  	98.422447 
2554.005776  	98.419912 
2555.436591  	98.414406 
2556.867407  	98.405688 
2558.298222  	98.399616 
2559.729038  	98.393159 
2561.159853  	98.384850 
2562.590669  	98.373582 
2564.021485  	98.357839 
2565.452300  	98.342998 
2566.883116  	98.326260 
2568.313931  	98.311340 
2569.744747  	98.302470 
2571.175562  	98.290143 
2572.606378  	98.282315 
2574.037193  	98.278755 
2575.468009  	98.271009 
2576.898825  	98.277514 
2578.329640  	98.294128 
2579.760456  	98.307587 
2581.191271  	98.324133 
2582.622087  	98.335652 
2584.052902  	98.352024 
2585.483718  	98.381162 
2586.914534  	98.404003 
2588.345349  	98.426766 
2589.776165  	98.444773 
2591.206980  	98.450442 
2592.637796  	98.467626 
2594.068611  	98.483965 
2595.499427  	98.486943 
2596.930242  	98.493175 
2598.361058  	98.492614 
2599.791874  	98.485975 
2601.222689  	98.478475 
2602.653505  	98.459153 
2604.084320  	98.442460 
2605.515136  	98.426396 
2606.945951  	98.398331 
2608.376767  	98.376126 
2609.807582  	98.358360 
2611.238398  	98.338532 
2612.669214  	98.326075 
2614.100029  	98.315640 
2615.530845  	98.303988 
2616.961660  	98.290513 
2618.392476  	98.276399 
2619.823291  	98.267592 
2621.254107  	98.254347 
2622.684923  	98.237357 
2624.115738  	98.226650 
2625.546554  	98.218518 
2626.977369  	98.214746 
2628.408185  	98.214601 
2629.839000  	98.219033 
2631.269816  	98.229167 
2632.700631  	98.230840 
2634.131447  	98.232916 
2635.562263  	98.242693 
2636.993078  	98.241948 
2638.423894  	98.237772 
2639.854709  	98.235119 
2641.285525  	98.228956 
2642.716340  	98.230107 
2644.147156  	98.229504 
2645.577972  	98.228115 
2647.008787  	98.241732 
2648.439603  	98.259270 
2649.870418  	98.281804 
2651.301234  	98.307446 
2652.732049  	98.323829 
2654.162865  	98.347005 
2655.593680  	98.369656 
2657.024496  	98.377278 
2658.455312  	98.386099 
2659.886127  	98.389751 
2661.316943  	98.386528 
2662.747758  	98.387439 
2664.178574  	98.380744 
2665.609389  	98.372502 
2667.040205  	98.368429 
2668.471020  	98.359509 
2669.901836  	98.355171 
2671.332652  	98.353024 
2672.763467  	98.350612 
2674.194283  	98.358694 
2675.625098  	98.370482 
2677.055914  	98.385684 
2678.486729  	98.404204 
2679.917545  	98.418371 
2681.348361  	98.435347 
2682.779176  	98.447357 
2684.209992  	98.449316 
2685.640807  	98.459111 
2687.071623  	98.475238 
2688.502438  	98.489625 
2689.933254  	98.499433 
2691.364069  	98.502605 
2692.794885  	98.508844 
2694.225701  	98.515009 
2695.656516  	98.518216 
2697.087332  	98.524559 
2698.518147  	98.523648 
2699.948963  	98.518313 
2701.379778  	98.515385 
2702.810594  	98.507426 
2704.241409  	98.501453 
2705.672225  	98.496838 
2707.103041  	98.490342 
2708.533856  	98.487558 
2709.964672  	98.478417 
2711.395487  	98.472459 
2712.826303  	98.480301 
2714.257118  	98.481429 
2715.687934  	98.476844 
2717.118750  	98.472406 
2718.549565  	98.464796 
2719.980381  	98.463231 
2721.411196  	98.456939 
2722.842012  	98.443405 
2724.272827  	98.437862 
2725.703643  	98.431654 
2727.134458  	98.425611 
2728.565274  	98.422609 
2729.996090  	98.416923 
2731.426905  	98.421118 
2732.857721  	98.424721 
2734.288536  	98.418746 
2735.719352  	98.423510 
2737.150167  	98.428401 
2738.580983  	98.425410 
2740.011799  	98.428724 
2741.442614  	98.427517 
2742.873430  	98.416881 
2744.304245  	98.405528 
2745.735061  	98.393102 
2747.165876  	98.378388 
2748.596692  	98.357211 
2750.027507  	98.333784 
2751.458323  	98.308145 
2752.889139  	98.272049 
2754.319954  	98.238459 
2755.750770  	98.209495 
2757.181585  	98.174606 
2758.612401  	98.141553 
2760.043216  	98.111251 
2761.474032  	98.087718 
2762.904847  	98.076944 
2764.335663  	98.068688 
2765.766479  	98.068823 
2767.197294  	98.079758 
2768.628110  	98.086802 
2770.058925  	98.088548 
2771.489741  	98.086350 
2772.920556  	98.083093 
2774.351372  	98.072941 
2775.782188  	98.047015 
2777.213003  	98.024711 
2778.643819  	98.008440 
2780.074634  	97.987011 
2781.505450  	97.970224 
2782.936265  	97.950730 
2784.367081  	97.930836 
2785.797896  	97.915753 
2787.228712  	97.883802 
2788.659528  	97.851665 
2790.090343  	97.823757 
2791.521159  	97.770730 
2792.951974  	97.716016 
2794.382790  	97.662800 
2795.813605  	97.585330 
2797.244421  	97.495501 
2798.675236  	97.389301 
2800.106052  	97.277750 
2801.536868  	97.172444 
2802.967683  	97.048617 
2804.398499  	96.940018 
2805.829314  	96.856994 
2807.260130  	96.772890 
2808.690945  	96.729866 
2810.121761  	96.713998 
2811.552577  	96.692854 
2812.983392  	96.695634 
2814.414208  	96.702753 
2815.845023  	96.705034 
2817.275839  	96.711772 
2818.706654  	96.709644 
2820.137470  	96.722503 
2821.568285  	96.742186 
2822.999101  	96.750175 
2824.429917  	96.770382 
2825.860732  	96.797277 
2827.291548  	96.833325 
2828.722363  	96.869658 
2830.153179  	96.879011 
2831.583994  	96.890426 
2833.014810  	96.906409 
2834.445626  	96.916862 
2835.876441  	96.936599 
2837.307257  	96.937575 
2838.738072  	96.931046 
2840.168888  	96.936734 
2841.599703  	96.926327 
2843.030519  	96.920671 
2844.461334  	96.915068 
2845.892150  	96.890761 
2847.322966  	96.877900 
2848.753781  	96.842518 
2850.184597  	96.778123 
2851.615412  	96.731274 
2853.046228  	96.681126 
2854.477043  	96.632850 
2855.907859  	96.590172 
2857.338674  	96.525639 
2858.769490  	96.453832 
2860.200306  	96.354693 
2861.631121  	96.241061 
2863.061937  	96.147604 
2864.492752  	96.020793 
2865.923568  	95.885381 
2867.354383  	95.772218 
2868.785199  	95.629565 
2870.216015  	95.497662 
2871.646830  	95.375520 
2873.077646  	95.226011 
2874.508461  	95.095340 
2875.939277  	94.960514 
2877.370092  	94.827336 
2878.800908  	94.713448 
2880.231723  	94.552582 
2881.662539  	94.380626 
2883.093355  	94.196295 
2884.524170  	93.952916 
2885.954986  	93.685178 
2887.385801  	93.316834 
2888.816617  	92.859590 
2890.247432  	92.376348 
2891.678248  	91.729015 
2893.109063  	90.973760 
2894.539879  	90.142186 
2895.970695  	89.085193 
2897.401510  	87.987682 
2898.832326  	86.793484 
2900.263141  	85.279973 
2901.693957  	83.627203 
2903.124772  	81.516623 
2904.555588  	78.777371 
2905.986404  	75.281535 
2907.417219  	70.206932 
2908.848035  	65.992675 
2910.278850  	62.775812 
2911.709666  	59.938579 
2913.140481  	61.092491 
2914.571297  	62.512634 
2916.002112  	65.769577 
2917.432928  	71.801315 
2918.863744  	77.558649 
2920.294559  	83.011565 
2921.725375  	86.874236 
2923.156190  	89.277439 
2924.587006  	91.073318 
2926.017821  	92.320264 
2927.448637  	93.177708 
2928.879453  	93.795625 
2930.310268  	94.171055 
2931.741084  	94.496043 
2933.171899  	94.780950 
2934.602715  	94.953401 
2936.033530  	95.127106 
2937.464346  	95.271883 
2938.895161  	95.371326 
2940.325977  	95.476666 
2941.756793  	95.517938 
2943.187608  	95.537032 
2944.618424  	95.532968 
2946.049239  	95.431683 
2947.480055  	95.355104 
2948.910870  	95.295306 
2950.341686  	95.143019 
2951.772501  	94.949289 
2953.203317  	94.726504 
2954.634133  	94.512137 
2956.064948  	94.296211 
2957.495764  	93.962511 
2958.926579  	93.559523 
2960.357395  	93.085111 
2961.788210  	92.528961 
2963.219026  	91.972219 
2964.649842  	91.265549 
2966.080657  	90.439310 
2967.511473  	89.587053 
2968.942288  	88.515055 
2970.373104  	87.389269 
2971.803919  	86.186803 
2973.234735  	84.698292 
2974.665550  	83.340377 
2976.096366  	81.840052 
2977.527182  	79.948268 
2978.957997  	78.090794 
2980.388813  	75.606803 
2981.819628  	73.050250 
2983.250444  	70.795968 
2984.681259  	67.561417 
2986.112075  	65.396862 
2987.542890  	63.383610 
2988.973706  	60.781674 
2990.404522  	60.036589 
2991.835337  	58.151579 
2993.266153  	58.089049 
2994.696968  	60.057358 
2996.127784  	59.059824 
2997.558599  	59.780593 
2998.989415  	61.477541 
3000.420231  	61.526113 
3001.851046  	63.030628 
3003.281862  	63.968909 
3004.712677  	65.666899 
3006.143493  	69.062670 
3007.574308  	71.517740 
3009.005124  	74.758810 
3010.435939  	78.056625 
3011.866755  	80.876581 
3013.297571  	83.787586 
3014.728386  	85.799283 
3016.159202  	87.158757 
3017.590017  	88.317341 
3019.020833  	89.025626 
3020.451648  	89.522816 
3021.882464  	89.916392 
3023.313279  	90.113782 
3024.744095  	90.302517 
3026.174911  	90.502758 
3027.605726  	90.681687 
3029.036542  	90.818824 
3030.467357  	90.884037 
3031.898173  	91.023559 
3033.328988  	91.172512 
3034.759804  	91.239057 
3036.190620  	91.335348 
3037.621435  	91.369578 
3039.052251  	91.329164 
3040.483066  	91.316994 
3041.913882  	91.258100 
3043.344697  	91.210632 
3044.775513  	91.184720 
3046.206328  	91.072195 
3047.637144  	90.985805 
3049.067960  	90.960960 
3050.498775  	90.972750 
3051.929591  	91.073365 
3053.360406  	91.159511 
3054.791222  	91.211711 
3056.222037  	91.274099 
3057.652853  	91.286617 
3059.083669  	91.294139 
3060.514484  	91.279424 
3061.945300  	91.167766 
3063.376115  	91.000365 
3064.806931  	90.744685 
3066.237746  	90.412198 
3067.668562  	90.071845 
3069.099377  	89.678876 
3070.530193  	89.291332 
3071.961009  	89.009079 
3073.391824  	88.884458 
3074.822640  	89.016421 
3076.253455  	89.383598 
3077.684271  	89.928853 
3079.115086  	90.607458 
3080.545902  	91.307246 
3081.976717  	91.983852 
3083.407533  	92.583492 
3084.838349  	93.072087 
3086.269164  	93.519131 
3087.699980  	93.913627 
3089.130795  	94.244433 
3090.561611  	94.564440 
3091.992426  	94.839665 
3093.423242  	95.034164 
3094.854058  	95.147822 
3096.284873  	95.174086 
3097.715689  	95.110027 
3099.146504  	94.907377 
3100.577320  	94.593005 
3102.008135  	94.281834 
3103.438951  	94.011892 
3104.869766  	93.855676 
3106.300582  	93.895938 
3107.731398  	94.114409 
3109.162213  	94.504092 
3110.593029  	95.008545 
3112.023844  	95.524664 
3113.454660  	95.997737 
3114.885475  	96.386434 
3116.316291  	96.698997 
3117.747106  	96.962121 
3119.177922  	97.166732 
3120.608738  	97.317961 
3122.039553  	97.415782 
3123.470369  	97.486828 
3124.901184  	97.570886 
3126.332000  	97.635956 
3127.762815  	97.702622 
3129.193631  	97.819710 
3130.624447  	97.929695 
3132.055262  	98.022268 
3133.486078  	98.150617 
3134.916893  	98.306147 
3136.347709  	98.468009 
3137.778524  	98.616533 
3139.209340  	98.742021 
3140.640155  	98.858937 
3142.070971  	98.958617 
3143.501787  	99.044828 
3144.932602  	99.132347 
3146.363418  	99.210750 
3147.794233  	99.283484 
3149.225049  	99.346998 
3150.655864  	99.389820 
3152.086680  	99.429759 
3153.517496  	99.476357 
3154.948311  	99.523757 
3156.379127  	99.563341 
3157.809942  	99.592093 
3159.240758  	99.625835 
3160.671573  	99.665454 
3162.102389  	99.707094 
3163.533204  	99.750327 
3164.964020  	99.782350 
3166.394836  	99.820827 
3167.825651  	99.878260 
3169.256467  	99.938119 
3170.687282  	100.001986 
3172.118098  	100.057731 
3173.548913  	100.112493 
3174.979729  	100.182715 
3176.410544  	100.218478 
3177.841360  	100.236792 
3179.272176  	100.306658 
3180.702991  	100.388041 
3182.133807  	100.447722 
3183.564622  	100.500331 
3184.995438  	100.548681 
3186.426253  	100.620834 
3187.857069  	100.701046 
3189.287885  	100.756103 
3190.718700  	100.811005 
3192.149516  	100.869001 
3193.580331  	100.929812 
3195.011147  	100.981675 
3196.441962  	100.983011 
3197.872778  	100.979934 
3199.303593  	101.011341 
3200.734409  	101.039909 
3202.165225  	101.080073 
3203.596040  	101.133550 
3205.026856  	101.192898 
3206.457671  	101.291981 
3207.888487  	101.390487 
3209.319302  	101.475984 
3210.750118  	101.604194 
3212.180933  	101.724660 
3213.611749  	101.809907 
3215.042565  	101.932677 
3216.473380  	102.064190 
3217.904196  	102.143049 
3219.335011  	102.226459 
3220.765827  	102.350473 
3222.196642  	102.465182 
3223.627458  	102.569193 
3225.058274  	102.688070 
3226.489089  	102.794989 
3227.919905  	102.894923 
3229.350720  	103.012732 
3230.781536  	103.120486 
3232.212351  	103.223070 
3233.643167  	103.340695 
3235.073982  	103.447632 
3236.504798  	103.556335 
3237.935614  	103.684116 
3239.366429  	103.811364 
3240.797245  	103.951285 
3242.228060  	104.088984 
3243.658876  	104.185096 
3245.089691  	104.285428 
3246.520507  	104.430059 
3247.951323  	104.586443 
3249.382138  	104.742275 
3250.812954  	104.892287 
3252.243769  	105.008179 
3253.674585  	105.093853 
3255.105400  	105.182711 
3256.536216  	105.292057 
3257.967031  	105.406697 
3259.397847  	105.511145 
3260.828663  	105.615557 
3262.259478  	105.712314 
3263.690294  	105.790343 
3265.121109  	105.884906 
3266.551925  	106.006719 
3267.982740  	106.115513 
3269.413556  	106.200717 
3270.844371  	106.288346 
3272.275187  	106.378677 
3273.706003  	106.437857 
3275.136818  	106.491346 
3276.567634  	106.603715 
3277.998449  	106.735631 
3279.429265  	106.838060 
3280.860080  	106.931169 
3282.290896  	106.995318 
3283.721712  	107.056449 
3285.152527  	107.170176 
3286.583343  	107.282963 
3288.014158  	107.368299 
3289.444974  	107.421387 
3290.875789  	107.417705 
3292.306605  	107.431708 
3293.737420  	107.456339 
3295.168236  	107.419356 
3296.599052  	107.392839 
3298.029867  	107.408289 
3299.460683  	107.428327 
3300.891498  	107.446673 
3302.322314  	107.426702 
3303.753129  	107.400287 
3305.183945  	107.393293 
3306.614760  	107.319432 
3308.045576  	107.197695 
3309.476392  	107.130371 
3310.907207  	107.091502 
3312.338023  	107.012305 
3313.768838  	106.935041 
3315.199654  	106.901399 
3316.630469  	106.858310 
3318.061285  	106.807039 
3319.492101  	106.797102 
3320.922916  	106.797897 
3322.353732  	106.773871 
3323.784547  	106.734966 
3325.215363  	106.718292 
3326.646178  	106.763780 
3328.076994  	106.835365 
3329.507809  	106.913666 
3330.938625  	107.036941 
3332.369441  	107.167267 
3333.800256  	107.268684 
3335.231072  	107.350033 
3336.661887  	107.401039 
3338.092703  	107.493825 
3339.523518  	107.640970 
3340.954334  	107.736096 
3342.385150  	107.803739 
3343.815965  	107.895391 
3345.246781  	107.996691 
3346.677596  	108.104995 
3348.108412  	108.145091 
3349.539227  	108.117867 
3350.970043  	108.098752 
3352.400858  	108.045259 
3353.831674  	107.954385 
3355.262490  	107.878663 
3356.693305  	107.840611 
3358.124121  	107.766064 
3359.554936  	107.521706 
3360.985752  	107.258260 
3362.416567  	107.096611 
3363.847383  	106.816549 
3365.278198  	106.429735 
3366.709014  	106.047980 
3368.139830  	105.521269 
3369.570645  	104.871553 
3371.001461  	104.299946 
3372.432276  	103.813159 
3373.863092  	103.258157 
3375.293907  	102.670065 
3376.724723  	102.087439 
3378.155539  	101.471036 
3379.586354  	100.936009 
3381.017170  	100.425808 
3382.447985  	99.819240 
3383.878801  	99.048386 
3385.309616  	98.226951 
3386.740432  	97.906009 
3388.171247  	97.630333 
3389.602063  	96.558180 
3391.032879  	95.323010 
3392.463694  	94.355641 
3393.894510  	93.542468 
3395.325325  	92.686013 
3396.756141  	91.239090 
3398.186956  	89.877534 
3399.617772  	88.650427 
3401.048587  	87.178959 
3402.479403  	86.671233 
3403.910219  	86.015672 
3405.341034  	84.663593 
3406.771850  	83.738017 
3408.202665  	82.223538 
3409.633481  	80.890471 
3411.064296  	80.001494 
3412.495112  	78.187631 
3413.925928  	77.727251 
3415.356743  	77.867350 
3416.787559  	77.042396 
3418.218374  	76.475562 
3419.649190  	74.950071 
3421.080005  	74.027810 
3422.510821  	74.446442 
3423.941636  	73.221575 
3425.372452  	72.551439 
3426.803268  	72.253335 
3428.234083  	70.656767 
3429.664899  	70.823453 
3431.095714  	70.598131 
3432.526530  	69.639022 
3433.957345  	69.678796 
3435.388161  	68.653163 
3436.818977  	69.846656 
3438.249792  	72.202764 
3439.680608  	72.335244 
3441.111423  	73.259619 
3442.542239  	73.861622 
3443.973054  	72.954969 
3445.403870  	72.589618 
3446.834685  	71.696219 
3448.265501  	72.092896 
3449.696317  	73.250651 
3451.127132  	72.829394 
3452.557948  	73.439761 
3453.988763  	73.699126 
3455.419579  	72.967441 
3456.850394  	73.327691 
3458.281210  	72.115028 
3459.712025  	71.023757 
3461.142841  	71.820899 
3462.573657  	71.437125 
3464.004472  	71.055798 
3465.435288  	69.796640 
3466.866103  	67.721826 
3468.296919  	68.621612 
3469.727734  	69.672608 
3471.158550  	70.860170 
3472.589366  	71.990046 
3474.020181  	71.091440 
3475.450997  	71.640730 
3476.881812  	72.308118 
3478.312628  	70.473685 
3479.743443  	70.346169 
3481.174259  	70.967175 
3482.605074  	71.696926 
3484.035890  	72.662553 
3485.466706  	71.473853 
3486.897521  	71.659078 
3488.328337  	73.058561 
3489.759152  	72.736969 
3491.189968  	73.290556 
3492.620783  	73.047077 
3494.051599  	71.837715 
3495.482414  	72.389779 
3496.913230  	72.799863 
3498.344046  	74.503740 
3499.774861  	75.234388 
3501.205677  	72.440582 
3502.636492  	72.319407 
3504.067308  	74.970906 
3505.498123  	76.812481 
3506.928939  	77.457799 
3508.359755  	76.420028 
3509.790570  	76.319421 
3511.221386  	76.967365 
3512.652201  	76.301723 
3514.083017  	77.270089 
3515.513832  	78.400773 
3516.944648  	78.958259 
3518.375463  	80.968882 
3519.806279  	81.687530 
3521.237095  	81.352316 
3522.667910  	81.962092 
3524.098726  	82.871839 
3525.529541  	84.608502 
3526.960357  	85.499521 
3528.391172  	85.990860 
3529.821988  	88.305513 
3531.252804  	90.730096 
3532.683619  	92.517159 
3534.114435  	93.381683 
3535.545250  	93.789785 
3536.976066  	95.921880 
3538.406881  	98.615456 
3539.837697  	100.876186 
3541.268512  	102.845615 
3542.699328  	103.246241 
3544.130144  	102.374226 
3545.560959  	102.407520 
3546.991775  	104.241721 
3548.422590  	106.361171 
3549.853406  	106.854865 
3551.284221  	106.465885 
3552.715037  	106.897176 
3554.145852  	108.189378 
3555.576668  	109.444056 
3557.007484  	110.029113 
3558.438299  	110.168971 
3559.869115  	110.613512 
3561.299930  	111.726058 
3562.730746  	112.355786 
3564.161561  	110.768574 
3565.592377  	107.773833 
3567.023193  	106.426082 
3568.454008  	107.901734 
3569.884824  	109.730979 
3571.315639  	110.492660 
3572.746455  	110.491583 
3574.177270  	110.385660 
3575.608086  	110.325813 
3577.038901  	110.263832 
3578.469717  	110.219188 
3579.900533  	110.302264 
3581.331348  	110.677099 
3582.762164  	111.069447 
3584.192979  	110.675533 
3585.623795  	109.078949 
3587.054610  	107.509076 
3588.485426  	107.842665 
3589.916241  	108.997837 
3591.347057  	109.304243 
3592.777873  	108.805854 
3594.208688  	108.263732 
3595.639504  	108.132930 
3597.070319  	108.206190 
3598.501135  	108.059838 
3599.931950  	107.718095 
3601.362766  	107.679326 
3602.793582  	108.009428 
3604.224397  	108.140692 
3605.655213  	107.641904 
3607.086028  	106.719723 
3608.516844  	106.195978 
3609.947659  	106.296763 
3611.378475  	106.149447 
3612.809290  	105.681467 
3614.240106  	105.745036 
3615.670922  	105.958412 
3617.101737  	105.378663 
3618.532553  	104.349790 
3619.963368  	104.147931 
3621.394184  	104.772817 
3622.824999  	105.305750 
3624.255815  	105.504178 
3625.686631  	105.345685 
3627.117446  	104.165114 
3628.548262  	102.172184 
3629.979077  	102.325198 
3631.409893  	103.374240 
3632.840708  	103.433737 
3634.271524  	103.237804 
3635.702339  	103.355517 
3637.133155  	103.242979 
3638.563971  	103.068328 
3639.994786  	103.041228 
3641.425602  	102.886951 
3642.856417  	102.933095 
3644.287233  	103.154263 
3645.718048  	102.725525 
3647.148864  	101.569529 
3648.579679  	100.491324 
3650.010495  	99.895866 
3651.441311  	100.558423 
3652.872126  	101.684570 
3654.302942  	101.738881 
3655.733757  	100.917100 
3657.164573  	100.807302 
3658.595388  	101.164134 
3660.026204  	101.219481 
3661.457020  	101.172029 
3662.887835  	101.181124 
3664.318651  	101.276774 
3665.749466  	101.450355 
3667.180282  	101.345509 
3668.611097  	100.464556 
3670.041913  	99.596691 
3671.472728  	100.321625 
3672.903544  	100.930502 
3674.334360  	99.692356 
3675.765175  	98.485400 
3677.195991  	99.387718 
3678.626806  	99.847662 
3680.057622  	99.952208 
3681.488437  	100.292893 
3682.919253  	100.436521 
3684.350068  	100.601738 
3685.780884  	100.753579 
3687.211700  	100.128622 
3688.642515  	99.173494 
3690.073331  	99.006223 
3691.504146  	99.249946 
3692.934962  	99.730293 
3694.365777  	100.075391 
3695.796593  	100.057958 
3697.227409  	100.154854 
3698.658224  	100.304638 
3700.089040  	99.954356 
3701.519855  	99.476996 
3702.950671  	99.639073 
3704.381486  	100.062762 
3705.812302  	100.285861 
3707.243117  	100.318187 
3708.673933  	100.074024 
3710.104749  	99.376631 
3711.535564  	98.672385 
3712.966380  	98.763851 
3714.397195  	99.418716 
3715.828011  	99.886231 
3717.258826  	99.933660 
3718.689642  	99.884587 
3720.120458  	99.808228 
3721.551273  	99.488084 
3722.982089  	99.305947 
3724.412904  	99.323778 
3725.843720  	99.163793 
3727.274535  	99.437585 
3728.705351  	100.181793 
3730.136166  	100.334718 
3731.566982  	99.832261 
3732.997798  	99.392177 
3734.428613  	98.618884 
3735.859429  	98.040243 
3737.290244  	98.795072 
3738.721060  	99.490568 
3740.151875  	99.972594 
3741.582691  	100.474526 
3743.013506  	99.722625 
3744.444322  	98.229019 
3745.875138  	99.113149 
3747.305953  	99.939603 
3748.736769  	99.506738 
3750.167584  	98.743763 
3751.598400  	98.375225 
3753.029215  	98.786986 
3754.460031  	99.595878 
3755.890847  	99.809284 
3757.321662  	99.581044 
3758.752478  	99.320003 
3760.183293  	99.246535 
3761.614109  	99.767792 
3763.044924  	100.069427 
3764.475740  	99.653515 
3765.906555  	99.603992 
3767.337371  	99.894812 
3768.768187  	99.501565 
3770.199002  	99.146653 
3771.629818  	99.542726 
3773.060633  	99.895791 
3774.491449  	100.012335 
3775.922264  	100.155935 
3777.353080  	100.040506 
3778.783895  	99.493670 
3780.214711  	99.407259 
3781.645527  	99.838092 
3783.076342  	99.837619 
3784.507158  	99.589863 
3785.937973  	99.683109 
3787.368789  	99.832908 
3788.799604  	99.906847 
3790.230420  	99.976764 
3791.661236  	100.069876 
3793.092051  	100.252803 
3794.522867  	100.116525 
3795.953682  	99.653017 
3797.384498  	99.850844 
3798.815313  	100.255096 
3800.246129  	99.548649 
3801.676944  	98.644353 
3803.107760  	99.434132 
3804.538576  	100.087547 
3805.969391  	99.495334 
3807.400207  	99.074702 
3808.831022  	99.670215 
3810.261838  	100.038422 
3811.692653  	100.302206 
3813.123469  	100.550549 
3814.554284  	99.928729 
3815.985100  	99.155409 
3817.415916  	99.753717 
3818.846731  	99.988731 
3820.277547  	98.869792 
3821.708362  	98.428225 
3823.139178  	99.394944 
3824.569993  	99.788603 
3826.000809  	99.510551 
3827.431625  	99.615317 
3828.862440  	99.983507 
3830.293256  	99.893304 
3831.724071  	99.665736 
3833.154887  	99.778028 
3834.585702  	99.900629 
3836.016518  	99.688443 
3837.447333  	99.157063 
3838.878149  	98.858130 
3840.308965  	99.095272 
3841.739780  	99.329717 
3843.170596  	99.340410 
3844.601411  	99.579533 
3846.032227  	100.070819 
3847.463042  	100.360488 
3848.893858  	100.541904 
3850.324674  	100.609479 
3851.755489  	99.526900 
3853.186305  	97.598325 
3854.617120  	97.933013 
3856.047936  	98.940576 
3857.478751  	99.569739 
3858.909567  	100.058043 
3860.340382  	100.106786 
3861.771198  	99.866264 
3863.202014  	99.513083 
3864.632829  	99.158842 
3866.063645  	99.690759 
3867.494460  	100.090121 
3868.925276  	99.160019 
3870.356091  	98.758292 
3871.786907  	99.459922 
3873.217722  	99.352185 
3874.648538  	99.277101 
3876.079354  	100.022458 
3877.510169  	100.340291 
3878.940985  	99.737801 
3880.371800  	99.106964 
3881.802616  	99.511673 
3883.233431  	99.913712 
3884.664247  	99.296925 
3886.095063  	99.042225 
3887.525878  	99.946892 
3888.956694  	100.251951 
3890.387509  	99.611039 
3891.818325  	99.241651 
3893.249140  	99.607463 
3894.679956  	100.109105 
3896.110771  	100.360660 
3897.541587  	100.120721 
3898.972403  	99.587114 
3900.403218  	99.305336 
3901.834034  	99.134548 
3903.264849  	98.738340 
3904.695665  	98.683469 
3906.126480  	99.221460 
3907.557296  	99.750177 
3908.988111  	99.984580 
3910.418927  	99.989025 
3911.849743  	100.015277 
3913.280558  	100.155009 
3914.711374  	99.998084 
3916.142189  	99.551852 
3917.573005  	99.434970 
3919.003820  	99.588099 
3920.434636  	99.801486 
3921.865452  	100.013792 
3923.296267  	99.867696 
3924.727083  	99.694814 
3926.157898  	100.010662 
3927.588714  	100.278037 
3929.019529  	100.173391 
3930.450345  	99.909468 
3931.881160  	99.680660 
3933.311976  	99.800347 
3934.742792  	100.181378 
3936.173607  	100.346476 
3937.604423  	100.358103 
3939.035238  	100.453167 
3940.466054  	100.351524 
3941.896869  	99.977425 
3943.327685  	99.911331 
3944.758501  	100.201649 
3946.189316  	100.245491 
3947.620132  	100.003778 
3949.050947  	99.915148 
3950.481763  	100.051408 
3951.912578  	100.210750 
3953.343394  	100.287433 
3954.774209  	100.256198 
3956.205025  	100.195428 
3957.635841  	100.190976 
3959.066656  	100.180620 
3960.497472  	100.079762 
3961.928287  	99.999935 
3963.359103  	100.073329 
3964.789918  	100.172870 
3966.220734  	100.166147 
3967.651549  	100.113185 
3969.082365  	100.075833 
3970.513181  	100.066430 
3971.943996  	100.061394 
3973.374812  	100.009143 
3974.805627  	99.957442 
3976.236443  	99.978699 
3977.667258  	100.044036 
3979.098074  	100.082816 
3980.528890  	100.061702 
3981.959705  	100.040884 
3983.390521  	100.060374 
3984.821336  	100.073711 
3986.252152  	100.085848 
3987.682967  	100.078572 
3989.113783  	100.008842 
3990.544598  	99.976593 
3991.975414  	100.019678 
3993.406230  	100.025528 
3994.837045  	100.001908 
3996.267861  	100.021765 
3997.698676  	100.055753 
3999.129492  	100.066754 
4000.560307  	100.065665 